# wave[microns] transmission[e/photon]
1.00000 0.000030488569
1.00580 0.000030433787
1.01160 0.000030379004
1.01740 0.000030324222
1.02320 0.000030269440
1.02900 0.000030214658
1.03480 0.000030159876
1.04060 0.000030105093
1.04640 0.000030050311
1.05220 0.000029995529
1.05800 0.000029940747
1.06380 0.000029885965
1.06960 0.000029831182
1.07540 0.000029776400
1.08120 0.000029721618
1.08700 0.000029666836
1.09280 0.000029612054
1.09860 0.000029557271
1.10440 0.000029502489
1.11020 0.000029447707
1.11600 0.000029392925
1.12180 0.000029338143
1.12760 0.000029283360
1.13340 0.000029228578
1.13920 0.000029173796
1.14500 0.000029119014
1.15080 0.000029064232
1.15660 0.000029009449
1.16240 0.000028954667
1.16820 0.000028899885
1.17400 0.000028845103
1.17980 0.000028790321
1.18560 0.000028735539
1.19140 0.000028680756
1.19720 0.000028625974
1.20300 0.000028571192
1.20880 0.000028516410
1.21460 0.000028461628
1.22040 0.000028406845
1.22620 0.000028352063
1.23200 0.000028297281
1.23780 0.000028242499
1.24360 0.000028187717
1.24940 0.000028132934
1.25520 0.000028078152
1.26100 0.000028023370
1.26680 0.000027968588
1.27260 0.000027913806
1.27840 0.000027859023
1.28420 0.000027804241
1.29000 0.000027749459
1.29580 0.000027694677
1.30160 0.000027639895
1.30740 0.000027585112
1.31320 0.000027530330
1.31900 0.000027475548
1.32480 0.000027420766
1.33060 0.000027365984
1.33640 0.000027311201
1.34220 0.000027256419
1.34800 0.000027201637
1.35380 0.000027146855
1.35960 0.000027092073
1.36540 0.000027037291
1.37120 0.000026982508
1.37700 0.000026927726
1.38280 0.000026872944
1.38860 0.000026818162
1.39440 0.000026763380
1.40020 0.000026708597
1.40600 0.000026653815
1.41180 0.000026599033
1.41760 0.000026544251
1.42340 0.000026489469
1.42920 0.000026434686
1.43500 0.000026379904
1.44080 0.000026325122
1.44660 0.000026270340
1.45240 0.000026215558
1.45820 0.000026160775
1.46400 0.000026105993
1.46980 0.000026051211
1.47560 0.000025996429
1.48140 0.000025941647
1.48720 0.000025886864
1.49300 0.000025832082
1.49880 0.000025777300
1.50460 0.000025722518
1.51040 0.000025667736
1.51620 0.000025612953
1.52200 0.000025558171
1.52780 0.000025503389
1.53360 0.000025448607
1.53940 0.000025393825
1.54520 0.000025339043
1.55100 0.000025284260
1.55680 0.000025229478
1.56260 0.000025174696
1.56840 0.000025119914
1.57420 0.000025065132
1.58000 0.000025010349
1.58580 0.000024955567
1.59160 0.000024900785
1.59740 0.000024846003
1.60320 0.000024791221
1.60900 0.000024736438
1.61480 0.000024681656
1.62060 0.000024626874
1.62640 0.000024572092
1.63220 0.000024517310
1.63800 0.000024462527
1.64380 0.000024407745
1.64960 0.000024352963
1.65540 0.000024298181
1.66120 0.000024243399
1.66700 0.000024188616
1.67280 0.000024133834
1.67860 0.000024079052
1.68440 0.000024024270
1.69020 0.000023969488
1.69600 0.000023914705
1.70180 0.000023859923
1.70760 0.000023805141
1.71340 0.000023750359
1.71920 0.000023695577
1.72500 0.000023640795
1.73080 0.000023586012
1.73660 0.000023531230
1.74240 0.000023476448
1.74820 0.000023421666
1.75400 0.000023366884
1.75980 0.000023312101
1.76560 0.000023257319
1.77140 0.000023202537
1.77720 0.000023147755
1.78300 0.000023092973
1.78880 0.000023038190
1.79460 0.000022983408
1.80040 0.000022928626
1.80620 0.000022873844
1.81200 0.000022819062
1.81780 0.000022764279
1.82360 0.000022709497
1.82940 0.000022654715
1.83520 0.000022599933
1.84100 0.000022545151
1.84680 0.000022490368
1.85260 0.000022435586
1.85840 0.000022380804
1.86420 0.000022326022
1.87000 0.000022271240
1.87580 0.000022216457
1.88160 0.000022161675
1.88740 0.000022106893
1.89320 0.000022052111
1.89900 0.000021997329
1.90480 0.000021942547
1.91060 0.000021887764
1.91640 0.000021832982
1.92220 0.000021778200
1.92800 0.000021723418
1.93380 0.000021668636
1.93960 0.000021613853
1.94540 0.000021559071
1.95120 0.000021504289
1.95700 0.000021449507
1.96280 0.000021394725
1.96860 0.000021339942
1.97440 0.000021285160
1.98020 0.000021230378
1.98600 0.000021175596
1.99180 0.000021120814
1.99760 0.000021066031
2.00340 0.000021011249
2.00920 0.000020956467
2.01500 0.000020901685
2.02080 0.000020846903
2.02660 0.000020792120
2.03240 0.000020737338
2.03820 0.000020682556
2.04400 0.000020627774
2.04980 0.000020572992
2.05560 0.000020518209
2.06140 0.000020463427
2.06720 0.000020408645
2.07300 0.000020353863
2.07880 0.000020299081
2.08460 0.000020244299
2.09040 0.000020189516
2.09620 0.000020134734
2.10200 0.000020079952
2.10780 0.000020025170
2.11360 0.000019970388
2.11940 0.000019915605
2.12520 0.000019860823
2.13100 0.000019806041
2.13680 0.000019751259
2.14260 0.000019696477
2.14840 0.000019641694
2.15420 0.000019586912
2.16000 0.000019532130
2.16580 0.000019477348
2.17160 0.000019422566
2.17740 0.000019367783
2.18320 0.000019313001
2.18900 0.000019258219
2.19480 0.000019203437
2.20060 0.000019148655
2.20640 0.000019093872
2.21220 0.000019039090
2.21800 0.000018984308
2.22380 0.000018929526
2.22960 0.000018874744
2.23540 0.000018819961
2.24120 0.000018765179
2.24700 0.000018710397
2.25280 0.000018655615
2.25860 0.000018600833
2.26440 0.000018546051
2.27020 0.000018491268
2.27600 0.000018436486
2.28180 0.000018381704
2.28760 0.000018326922
2.29340 0.000018272140
2.29920 0.000018217357
2.30500 0.000018162575
2.31080 0.000018107793
2.31660 0.000018053011
2.32240 0.000017998229
2.32820 0.000017943446
2.33400 0.000017888664
2.33980 0.000017833882
2.34560 0.000017779100
2.35140 0.000017724318
2.35720 0.000017669535
2.36300 0.000017614753
2.36880 0.000017559971
2.37460 0.000017505189
2.38040 0.000017450407
2.38620 0.000017395624
2.39200 0.000017340842
2.39780 0.000017286060
2.40360 0.000017231278
2.40940 0.000017176496
2.41520 0.000017121713
2.42100 0.000017066931
2.42680 0.000017012149
2.43260 0.000016957367
2.43840 0.000016902585
2.44420 0.000016847803
2.45000 0.000016793020
2.45580 0.000016738238
2.46160 0.000016683456
2.46740 0.000016628674
2.47320 0.000016573892
2.47900 0.000016519109
2.48480 0.000016464327
2.49060 0.000016409545
2.49640 0.000016354763
2.50220 0.000016316787
2.50800 0.000016306314
2.51380 0.000016295841
2.51960 0.000016285368
2.52540 0.000016274895
2.53120 0.000016264422
2.53700 0.000016253949
2.54280 0.000016243476
2.54860 0.000016233003
2.55440 0.000016222530
2.56020 0.000016212057
2.56600 0.000016201584
2.57180 0.000016191111
2.57760 0.000016180638
2.58340 0.000016170165
2.58920 0.000016159691
2.59500 0.000016149218
2.60080 0.000016138745
2.60660 0.000016128272
2.61240 0.000016117799
2.61820 0.000016107326
2.62400 0.000016096853
2.62980 0.000016086380
2.63560 0.000016075907
2.64140 0.000016065434
2.64720 0.000016054961
2.65300 0.000016044488
2.65880 0.000016034015
2.66460 0.000016023542
2.67040 0.000016013069
2.67620 0.000016002595
2.68200 0.000015992122
2.68780 0.000015981649
2.69360 0.000015971176
2.69940 0.000015960703
2.70520 0.000015950230
2.71100 0.000015939757
2.71680 0.000015929284
2.72260 0.000015918811
2.72840 0.000015908338
2.73420 0.000015897865
2.74000 0.000015887392
2.74580 0.000015876919
2.75160 0.000015866446
2.75740 0.000015855973
2.76320 0.000015845499
2.76900 0.000015835026
2.77480 0.000015824553
2.78060 0.000015814080
2.78640 0.000015803607
2.79220 0.000015793134
2.79800 0.000015782661
2.80380 0.000015772188
2.80960 0.000015761715
2.81540 0.000015751242
2.82120 0.000015740769
2.82700 0.000015730296
2.83280 0.000015719823
2.83860 0.000015709350
2.84440 0.000015698877
2.85020 0.000015688403
2.85600 0.000015677930
2.86180 0.000015667457
2.86760 0.000015656984
2.87340 0.000015646511
2.87920 0.000015636038
2.88500 0.000015625565
2.89080 0.000015615092
2.89660 0.000015604619
2.90240 0.000015594146
2.90820 0.000015583673
2.91400 0.000015573200
2.91980 0.000015562727
2.92560 0.000015552254
2.93140 0.000015541781
2.93720 0.000015531308
2.94300 0.000015520834
2.94880 0.000015510361
2.95460 0.000015499888
2.96040 0.000015489415
2.96620 0.000015478942
2.97200 0.000015468469
2.97780 0.000015457996
2.98360 0.000015447523
2.98940 0.000015437050
2.99520 0.000015426577
3.00100 0.000015421382
3.00680 0.000015441522
3.01260 0.000015461663
3.01840 0.000015481804
3.02420 0.000015501944
3.03000 0.000015522085
3.03580 0.000015542225
3.04160 0.000015562366
3.04740 0.000015582506
3.05320 0.000015602647
3.05900 0.000015622787
3.06480 0.000015642928
3.07060 0.000015663068
3.07640 0.000015683209
3.08220 0.000015703349
3.08800 0.000015723490
3.09380 0.000015743630
3.09960 0.000015763771
3.10540 0.000015783911
3.11120 0.000015804052
3.11700 0.000015824192
3.12280 0.000015844333
3.12860 0.000015864473
3.13440 0.000015884614
3.14020 0.000015904754
3.14600 0.000015924895
3.15180 0.000015945035
3.15760 0.000015965176
3.16340 0.000015985316
3.16920 0.000016005457
3.17500 0.000016025597
3.18080 0.000016045738
3.18660 0.000016065878
3.19240 0.000016086019
3.19820 0.000016106159
3.20400 0.000016126300
3.20980 0.000016146440
3.21560 0.000016166581
3.22140 0.000016186721
3.22720 0.000016206862
3.23300 0.000016227002
3.23880 0.000016247143
3.24460 0.000016267283
3.25040 0.000016287424
3.25620 0.000016307565
3.26200 0.000016327705
3.26780 0.000016347846
3.27360 0.000016367986
3.27940 0.000016388127
3.28520 0.000016408267
3.29100 0.000016428408
3.29680 0.000016448548
3.30260 0.000016468689
3.30840 0.000016488829
3.31420 0.000016508970
3.32000 0.000016529110
3.32580 0.000016549251
3.33160 0.000016569391
3.33740 0.000016589532
3.34320 0.000016609672
3.34900 0.000016629813
3.35480 0.000016649953
3.36060 0.000016670094
3.36640 0.000016690234
3.37220 0.000016710375
3.37800 0.000016730515
3.38380 0.000016750656
3.38960 0.000016770796
3.39540 0.000016790937
3.40120 0.000016811077
3.40700 0.000016831218
3.41280 0.000016851358
3.41860 0.000016871499
3.42440 0.000016891639
3.43020 0.000016911780
3.43600 0.000016931920
3.44180 0.000016952061
3.44760 0.000016972201
3.45340 0.000016992342
3.45920 0.000017012482
3.46500 0.000017032623
3.47080 0.000017052763
3.47660 0.000017072904
3.48240 0.000017093044
3.48820 0.000017113185
3.49400 0.000017133326
3.49980 0.000017153466
3.50560 0.000017217943
3.51140 0.000017284004
3.51720 0.000017350065
3.52300 0.000017416126
3.52880 0.000017482187
3.53460 0.000017548248
3.54040 0.000017614309
3.54620 0.000017680370
3.55200 0.000017746431
3.55780 0.000017812491
3.56360 0.000017878552
3.56940 0.000017944613
3.57520 0.000018010674
3.58100 0.000018076735
3.58680 0.000018142796
3.59260 0.000018208857
3.59840 0.000018274918
3.60420 0.000018340978
3.61000 0.000018407039
3.61580 0.000018473100
3.62160 0.000018539161
3.62740 0.000018605222
3.63320 0.000018671283
3.63900 0.000018737344
3.64480 0.000018803405
3.65060 0.000018869465
3.65640 0.000018935526
3.66220 0.000019001587
3.66800 0.000019067648
3.67380 0.000019133709
3.67960 0.000019199770
3.68540 0.000019265831
3.69120 0.000019331892
3.69700 0.000019397953
3.70280 0.000019464013
3.70860 0.000019530074
3.71440 0.000019596135
3.72020 0.000019662196
3.72600 0.000019728257
3.73180 0.000019794318
3.73760 0.000019860379
3.74340 0.000019926440
3.74920 0.000019992500
3.75500 0.000020058561
3.76080 0.000020124622
3.76660 0.000020190683
3.77240 0.000020256744
3.77820 0.000020322805
3.78400 0.000020388866
3.78980 0.000020454927
3.79560 0.000020520987
3.80140 0.000020587048
3.80720 0.000020653109
3.81300 0.000020719170
3.81880 0.000020785231
3.82460 0.000020851292
3.83040 0.000020917353
3.83620 0.000020983414
3.84200 0.000021049475
3.84780 0.000021115535
3.85360 0.000021181596
3.85940 0.000021247657
3.86520 0.000021313718
3.87100 0.000021379779
3.87680 0.000021445840
3.88260 0.000021511901
3.88840 0.000021577962
3.89420 0.000021644022
3.90000 0.000021710083
3.90580 0.000021776144
3.91160 0.000021842205
3.91740 0.000021908266
3.92320 0.000021974327
3.92900 0.000022040388
3.93480 0.000022106449
3.94060 0.000022172509
3.94640 0.000022238570
3.95220 0.000022304631
3.95800 0.000022370692
3.96380 0.000022436753
3.96960 0.000022502814
3.97540 0.000022568875
3.98120 0.000022634936
3.98700 0.000022700997
3.99280 0.000022767057
3.99860 0.000022833118
4.00440 0.000022886956
4.01020 0.000022936904
4.01600 0.000022986853
4.02180 0.000023036801
4.02760 0.000023086750
4.03340 0.000023136698
4.03920 0.000023186647
4.04500 0.000023236595
4.05080 0.000023286544
4.05660 0.000023336492
4.06240 0.000023386441
4.06820 0.000023436389
4.07400 0.000023486338
4.07980 0.000023536286
4.08560 0.000023586235
4.09140 0.000023636183
4.09720 0.000023686132
4.10300 0.000023736080
4.10880 0.000023786028
4.11460 0.000023835977
4.12040 0.000023885925
4.12620 0.000023935874
4.13200 0.000023985822
4.13780 0.000024035771
4.14360 0.000024085719
4.14940 0.000024135668
4.15520 0.000024185616
4.16100 0.000024235565
4.16680 0.000024285513
4.17260 0.000024335462
4.17840 0.000024385410
4.18420 0.000024435359
4.19000 0.000024485307
4.19580 0.000024535256
4.20160 0.000024585204
4.20740 0.000024635152
4.21320 0.000024685101
4.21900 0.000024735049
4.22480 0.000024784998
4.23060 0.000024834946
4.23640 0.000024884895
4.24220 0.000024934843
4.24800 0.000024984792
4.25380 0.000025034740
4.25960 0.000025084689
4.26540 0.000025134637
4.27120 0.000025184586
4.27700 0.000025234534
4.28280 0.000025284483
4.28860 0.000025334431
4.29440 0.000025384380
4.30020 0.000025434328
4.30600 0.000025484276
4.31180 0.000025534225
4.31760 0.000025584173
4.32340 0.000025634122
4.32920 0.000025684070
4.33500 0.000025734019
4.34080 0.000025783967
4.34660 0.000025833916
4.35240 0.000025883864
4.35820 0.000025933813
4.36400 0.000025983761
4.36980 0.000026033710
4.37560 0.000026083658
4.38140 0.000026133607
4.38720 0.000026183555
4.39300 0.000026233504
4.39880 0.000026283452
4.40460 0.000026333400
4.41040 0.000026383349
4.41620 0.000026433297
4.42200 0.000026483246
4.42780 0.000026533194
4.43360 0.000026583143
4.43940 0.000026633091
4.44520 0.000026683040
4.45100 0.000026732988
4.45680 0.000026782937
4.46260 0.000026832885
4.46840 0.000026882834
4.47420 0.000026932782
4.48000 0.000026982731
4.48580 0.000027032679
4.49160 0.000027082628
4.49740 0.000027132576
4.50320 0.000027176746
4.50900 0.000027216222
4.51480 0.000027255697
4.52060 0.000027295172
4.52640 0.000027334648
4.53220 0.000027374123
4.53800 0.000027413599
4.54380 0.000027453074
4.54960 0.000027492549
4.55540 0.000027532025
4.56120 0.000027571500
4.56700 0.000027610976
4.57280 0.000027650451
4.57860 0.000027689926
4.58440 0.000027729402
4.59020 0.000027768877
4.59600 0.000027808353
4.60180 0.000027847828
4.60760 0.000027887303
4.61340 0.000027926779
4.61920 0.000027966254
4.62500 0.000028005730
4.63080 0.000028045205
4.63660 0.000028084681
4.64240 0.000028124156
4.64820 0.000028163631
4.65400 0.000028203107
4.65980 0.000028242582
4.66560 0.000028282058
4.67140 0.000028321533
4.67720 0.000028361008
4.68300 0.000028400484
4.68880 0.000028439959
4.69460 0.000028479435
4.70040 0.000028518910
4.70620 0.000028558385
4.71200 0.000028597861
4.71780 0.000028637336
4.72360 0.000028676812
4.72940 0.000028716287
4.73520 0.000028755762
4.74100 0.000028795238
4.74680 0.000028834713
4.75260 0.000028874189
4.75840 0.000028913664
4.76420 0.000028953139
4.77000 0.000028992615
4.77580 0.000029032090
4.78160 0.000029071566
4.78740 0.000029111041
4.79320 0.000029150516
4.79900 0.000029189992
4.80480 0.000029229467
4.81060 0.000029268943
4.81640 0.000029308418
4.82220 0.000029347893
4.82800 0.000029387369
4.83380 0.000029426844
4.83960 0.000029466320
4.84540 0.000029505795
4.85120 0.000029545270
4.85700 0.000029584746
4.86280 0.000029624221
4.86860 0.000029663697
4.87440 0.000029703172
4.88020 0.000029742647
4.88600 0.000029782123
4.89180 0.000029821598
4.89760 0.000029861074
4.90340 0.000029900549
4.90920 0.000029940025
4.91500 0.000029979500
4.92080 0.000030018975
4.92660 0.000030058451
4.93240 0.000030097926
4.93820 0.000030137402
4.94400 0.000030176877
4.94980 0.000030216352
4.95560 0.000030255828
4.96140 0.000030295303
4.96720 0.000030334779
4.97300 0.000030374254
4.97880 0.000030413729
4.98460 0.000030453205
4.99040 0.000030492680
4.99620 0.000030532156
5.00200 0.000030577743
5.00780 0.000030634942
5.01360 0.000030692141
5.01940 0.000030749340
5.02520 0.000030806539
5.03100 0.000030863738
5.03680 0.000030920937
5.04260 0.000030978136
5.04840 0.000031035335
5.05420 0.000031092534
5.06000 0.000031149733
5.06580 0.000031206932
5.07160 0.000031264131
5.07740 0.000031321330
5.08320 0.000031378529
5.08900 0.000031435728
5.09480 0.000031492927
5.10060 0.000031550127
5.10640 0.000031607326
5.11220 0.000031664525
5.11800 0.000031721724
5.12380 0.000031778923
5.12960 0.000031836122
5.13540 0.000031893321
5.14120 0.000031950520
5.14700 0.000032007719
5.15280 0.000032064918
5.15860 0.000032122117
5.16440 0.000032179316
5.17020 0.000032236515
5.17600 0.000032293714
5.18180 0.000032350913
5.18760 0.000032408112
5.19340 0.000032465311
5.19920 0.000032522510
5.20500 0.000032579710
5.21080 0.000032636909
5.21660 0.000032694108
5.22240 0.000032751307
5.22820 0.000032808506
5.23400 0.000032865705
5.23980 0.000032922904
5.24560 0.000032980103
5.25140 0.000033037302
5.25720 0.000033094501
5.26300 0.000033151700
5.26880 0.000033208899
5.27460 0.000033266098
5.28040 0.000033323297
5.28620 0.000033380496
5.29200 0.000033437695
5.29780 0.000033494894
5.30360 0.000033552093
5.30940 0.000033609293
5.31520 0.000033666492
5.32100 0.000033723691
5.32680 0.000033780890
5.33260 0.000033838089
5.33840 0.000033895288
5.34420 0.000033952487
5.35000 0.000034009686
5.35580 0.000034066885
5.36160 0.000034124084
5.36740 0.000034181283
5.37320 0.000034238482
5.37900 0.000034295681
5.38480 0.000034352880
5.39060 0.000034410079
5.39640 0.000034467278
5.40220 0.000034524477
5.40800 0.000034581676
5.41380 0.000034638875
5.41960 0.000034696075
5.42540 0.000034753274
5.43120 0.000034810473
5.43700 0.000034867672
5.44280 0.000034924871
5.44860 0.000034982070
5.45440 0.000035039269
5.46020 0.000035096468
5.46600 0.000035153667
5.47180 0.000035210866
5.47760 0.000035268065
5.48340 0.000035325264
5.48920 0.000035382463
5.49500 0.000035439662
5.50080 0.000035495861
5.50660 0.000035545810
5.51240 0.000035595758
5.51820 0.000035645707
5.52400 0.000035695655
5.52980 0.000035745604
5.53560 0.000035795552
5.54140 0.000035845501
5.54720 0.000035895449
5.55300 0.000035945397
5.55880 0.000035995346
5.56460 0.000036045294
5.57040 0.000036095243
5.57620 0.000036145191
5.58200 0.000036195140
5.58780 0.000036245088
5.59360 0.000036295037
5.59940 0.000036344985
5.60520 0.000036394934
5.61100 0.000036444882
5.61680 0.000036494831
5.62260 0.000036544779
5.62840 0.000036594728
5.63420 0.000036644676
5.64000 0.000036694625
5.64580 0.000036744573
5.65160 0.000036794521
5.65740 0.000036844470
5.66320 0.000036894418
5.66900 0.000036944367
5.67480 0.000036994315
5.68060 0.000037044264
5.68640 0.000037094212
5.69220 0.000037144161
5.69800 0.000037194109
5.70380 0.000037244058
5.70960 0.000037294006
5.71540 0.000037343955
5.72120 0.000037393903
5.72700 0.000037443852
5.73280 0.000037493800
5.73860 0.000037543749
5.74440 0.000037593697
5.75020 0.000037643645
5.75600 0.000037693594
5.76180 0.000037743542
5.76760 0.000037793491
5.77340 0.000037843439
5.77920 0.000037893388
5.78500 0.000037943336
5.79080 0.000037993285
5.79660 0.000038043233
5.80240 0.000038093182
5.80820 0.000038143130
5.81400 0.000038193079
5.81980 0.000038243027
5.82560 0.000038292976
5.83140 0.000038342924
5.83720 0.000038392873
5.84300 0.000038442821
5.84880 0.000038492769
5.85460 0.000038542718
5.86040 0.000038592666
5.86620 0.000038642615
5.87200 0.000038692563
5.87780 0.000038742512
5.88360 0.000038792460
5.88940 0.000038842409
5.89520 0.000038892357
5.90100 0.000038942306
5.90680 0.000038992254
5.91260 0.000039042203
5.91840 0.000039092151
5.92420 0.000039142100
5.93000 0.000039192048
5.93580 0.000039241997
5.94160 0.000039291945
5.94740 0.000039341893
5.95320 0.000039391842
5.95900 0.000039441790
5.96480 0.000039491739
5.97060 0.000039541687
5.97640 0.000039591636
5.98220 0.000039641584
5.98800 0.000039691533
5.99380 0.000039741481
5.99960 0.000039791430
6.00540 0.000039822627
6.01120 0.000039852435
6.01700 0.000039882243
6.02280 0.000039912051
6.02860 0.000039941859
6.03440 0.000039971666
6.04020 0.000040001474
6.04600 0.000040031282
6.05180 0.000040061090
6.05760 0.000040090898
6.06340 0.000040120706
6.06920 0.000040150514
6.07500 0.000040180322
6.08080 0.000040210130
6.08660 0.000040239938
6.09240 0.000040269746
6.09820 0.000040299554
6.10400 0.000040329362
6.10980 0.000040359170
6.11560 0.000040388978
6.12140 0.000040418786
6.12720 0.000040448594
6.13300 0.000040478402
6.13880 0.000040508210
6.14460 0.000040538018
6.15040 0.000040567826
6.15620 0.000040597634
6.16200 0.000040627442
6.16780 0.000040657250
6.17360 0.000040687057
6.17940 0.000040716865
6.18520 0.000040746673
6.19100 0.000040776481
6.19680 0.000040806289
6.20260 0.000040836097
6.20840 0.000040865905
6.21420 0.000040895713
6.22000 0.000040925521
6.22580 0.000040955329
6.23160 0.000040985137
6.23740 0.000041014945
6.24320 0.000041044753
6.24900 0.000041074561
6.25480 0.000041104369
6.26060 0.000041134177
6.26640 0.000041163985
6.27220 0.000041193793
6.27800 0.000041223601
6.28380 0.000041253409
6.28960 0.000041283217
6.29540 0.000041313025
6.30120 0.000041342833
6.30700 0.000041372641
6.31280 0.000041402448
6.31860 0.000041432256
6.32440 0.000041462064
6.33020 0.000041491872
6.33600 0.000041521680
6.34180 0.000041551488
6.34760 0.000041581296
6.35340 0.000041611104
6.35920 0.000041640912
6.36500 0.000041670720
6.37080 0.000041700528
6.37660 0.000041730336
6.38240 0.000041760144
6.38820 0.000041789952
6.39400 0.000041819760
6.39980 0.000041849568
6.40560 0.000041879376
6.41140 0.000041909184
6.41720 0.000041938992
6.42300 0.000041968800
6.42880 0.000041998608
6.43460 0.000042028416
6.44040 0.000042058224
6.44620 0.000042088032
6.45200 0.000042117839
6.45780 0.000042147647
6.46360 0.000042177455
6.46940 0.000042207263
6.47520 0.000042237071
6.48100 0.000042266879
6.48680 0.000042296687
6.49260 0.000042326495
6.49840 0.000042356303
6.50420 0.000042344691
6.51000 0.000042317300
6.51580 0.000042289909
6.52160 0.000042262518
6.52740 0.000042235127
6.53320 0.000042207736
6.53900 0.000042180345
6.54480 0.000042152953
6.55060 0.000042125562
6.55640 0.000042098171
6.56220 0.000042070780
6.56800 0.000042043389
6.57380 0.000042015998
6.57960 0.000041988607
6.58540 0.000041961216
6.59120 0.000041933825
6.59700 0.000041906434
6.60280 0.000041879042
6.60860 0.000041851651
6.61440 0.000041824260
6.62020 0.000041796869
6.62600 0.000041769478
6.63180 0.000041742087
6.63760 0.000041714696
6.64340 0.000041687305
6.64920 0.000041659914
6.65500 0.000041632523
6.66080 0.000041605131
6.66660 0.000041577740
6.67240 0.000041550349
6.67820 0.000041522958
6.68400 0.000041495567
6.68980 0.000041468176
6.69560 0.000041440785
6.70140 0.000041413394
6.70720 0.000041386003
6.71300 0.000041358612
6.71880 0.000041331221
6.72460 0.000041303829
6.73040 0.000041276438
6.73620 0.000041249047
6.74200 0.000041221656
6.74780 0.000041194265
6.75360 0.000041166874
6.75940 0.000041139483
6.76520 0.000041112092
6.77100 0.000041084701
6.77680 0.000041057310
6.78260 0.000041029918
6.78840 0.000041002527
6.79420 0.000040975136
6.80000 0.000040947745
6.80580 0.000040920354
6.81160 0.000040892963
6.81740 0.000040865572
6.82320 0.000040838181
6.82900 0.000040810790
6.83480 0.000040783399
6.84060 0.000040756007
6.84640 0.000040728616
6.85220 0.000040701225
6.85800 0.000040673834
6.86380 0.000040646443
6.86960 0.000040619052
6.87540 0.000040591661
6.88120 0.000040564270
6.88700 0.000040536879
6.89280 0.000040509488
6.89860 0.000040482097
6.90440 0.000040454705
6.91020 0.000040427314
6.91600 0.000040399923
6.92180 0.000040372532
6.92760 0.000040345141
6.93340 0.000040317750
6.93920 0.000040290359
6.94500 0.000040262968
6.95080 0.000040235577
6.95660 0.000040208186
6.96240 0.000040180794
6.96820 0.000040153403
6.97400 0.000040126012
6.97980 0.000040098621
6.98560 0.000040071230
6.99140 0.000040043839
6.99720 0.000040016448
7.00300 0.000040011975
7.00880 0.000040028893
7.01460 0.000040045811
7.02040 0.000040062729
7.02620 0.000040079647
7.03200 0.000040096565
7.03780 0.000040113483
7.04360 0.000040130401
7.04940 0.000040147320
7.05520 0.000040164238
7.06100 0.000040181156
7.06680 0.000040198074
7.07260 0.000040214992
7.07840 0.000040231910
7.08420 0.000040248828
7.09000 0.000040265746
7.09580 0.000040282664
7.10160 0.000040299582
7.10740 0.000040316500
7.11320 0.000040333418
7.11900 0.000040350336
7.12480 0.000040367254
7.13060 0.000040384172
7.13640 0.000040401090
7.14220 0.000040418008
7.14800 0.000040434926
7.15380 0.000040451844
7.15960 0.000040468762
7.16540 0.000040485680
7.17120 0.000040502598
7.17700 0.000040519516
7.18280 0.000040536434
7.18860 0.000040553352
7.19440 0.000040570270
7.20020 0.000040587188
7.20600 0.000040604106
7.21180 0.000040621024
7.21760 0.000040637942
7.22340 0.000040654860
7.22920 0.000040671778
7.23500 0.000040688696
7.24080 0.000040705615
7.24660 0.000040722533
7.25240 0.000040739451
7.25820 0.000040756369
7.26400 0.000040773287
7.26980 0.000040790205
7.27560 0.000040807123
7.28140 0.000040824041
7.28720 0.000040840959
7.29300 0.000040857877
7.29880 0.000040874795
7.30460 0.000040891713
7.31040 0.000040908631
7.31620 0.000040925549
7.32200 0.000040942467
7.32780 0.000040959385
7.33360 0.000040976303
7.33940 0.000040993221
7.34520 0.000041010139
7.35100 0.000041027057
7.35680 0.000041043975
7.36260 0.000041060893
7.36840 0.000041077811
7.37420 0.000041094729
7.38000 0.000041111647
7.38580 0.000041128565
7.39160 0.000041145483
7.39740 0.000041162401
7.40320 0.000041179319
7.40900 0.000041196237
7.41480 0.000041213155
7.42060 0.000041230073
7.42640 0.000041246991
7.43220 0.000041263910
7.43800 0.000041280828
7.44380 0.000041297746
7.44960 0.000041314664
7.45540 0.000041331582
7.46120 0.000041348500
7.46700 0.000041365418
7.47280 0.000041382336
7.47860 0.000041399254
7.48440 0.000041416172
7.49020 0.000041433090
7.49600 0.000041450008
7.50180 0.000041469926
7.50760 0.000041496512
7.51340 0.000041523097
7.51920 0.000041549683
7.52500 0.000041576268
7.53080 0.000041602854
7.53660 0.000041629439
7.54240 0.000041656024
7.54820 0.000041682610
7.55400 0.000041709195
7.55980 0.000041735781
7.56560 0.000041762366
7.57140 0.000041788952
7.57720 0.000041815537
7.58300 0.000041842123
7.58880 0.000041868708
7.59460 0.000041895294
7.60040 0.000041921879
7.60620 0.000041948465
7.61200 0.000041975050
7.61780 0.000042001636
7.62360 0.000042028221
7.62940 0.000042054807
7.63520 0.000042081392
7.64100 0.000042107978
7.64680 0.000042134563
7.65260 0.000042161149
7.65840 0.000042187734
7.66420 0.000042214319
7.67000 0.000042240905
7.67580 0.000042267490
7.68160 0.000042294076
7.68740 0.000042320661
7.69320 0.000042347247
7.69900 0.000042373832
7.70480 0.000042400418
7.71060 0.000042427003
7.71640 0.000042453589
7.72220 0.000042480174
7.72800 0.000042506760
7.73380 0.000042533345
7.73960 0.000042559931
7.74540 0.000042586516
7.75120 0.000042613102
7.75700 0.000042639687
7.76280 0.000042666273
7.76860 0.000042692858
7.77440 0.000042719444
7.78020 0.000042746029
7.78600 0.000042772614
7.79180 0.000042799200
7.79760 0.000042825785
7.80340 0.000042852371
7.80920 0.000042878956
7.81500 0.000042905542
7.82080 0.000042932127
7.82660 0.000042958713
7.83240 0.000042985298
7.83820 0.000043011884
7.84400 0.000043038469
7.84980 0.000043065055
7.85560 0.000043091640
7.86140 0.000043118226
7.86720 0.000043144811
7.87300 0.000043171397
7.87880 0.000043197982
7.88460 0.000043224568
7.89040 0.000043251153
7.89620 0.000043277739
7.90200 0.000043304324
7.90780 0.000043330909
7.91360 0.000043357495
7.91940 0.000043384080
7.92520 0.000043410666
7.93100 0.000043437251
7.93680 0.000043463837
7.94260 0.000043490422
7.94840 0.000043517008
7.95420 0.000043543593
7.96000 0.000043570179
7.96580 0.000043596764
7.97160 0.000043623350
7.97740 0.000043649935
7.98320 0.000043676521
7.98900 0.000043703106
7.99480 0.000043729692
8.00060 0.000043755527
8.00640 0.000043774862
8.01220 0.000043794197
8.01800 0.000043813532
8.02380 0.000043832867
8.02960 0.000043852201
8.03540 0.000043871536
8.04120 0.000043890871
8.04700 0.000043910206
8.05280 0.000043929541
8.05860 0.000043948876
8.06440 0.000043968211
8.07020 0.000043987546
8.07600 0.000044006881
8.08180 0.000044026216
8.08760 0.000044045550
8.09340 0.000044064885
8.09920 0.000044084220
8.10500 0.000044103555
8.11080 0.000044122890
8.11660 0.000044142225
8.12240 0.000044161560
8.12820 0.000044180895
8.13400 0.000044200230
8.13980 0.000044219564
8.14560 0.000044238899
8.15140 0.000044258234
8.15720 0.000044277569
8.16300 0.000044296904
8.16880 0.000044316239
8.17460 0.000044335574
8.18040 0.000044354909
8.18620 0.000044374244
8.19200 0.000044393578
8.19780 0.000044412913
8.20360 0.000044432248
8.20940 0.000044451583
8.21520 0.000044470918
8.22100 0.000044490253
8.22680 0.000044509588
8.23260 0.000044528923
8.23840 0.000044548258
8.24420 0.000044567592
8.25000 0.000044586927
8.25580 0.000044606262
8.26160 0.000044625597
8.26740 0.000044644932
8.27320 0.000044664267
8.27900 0.000044683602
8.28480 0.000044702937
8.29060 0.000044722272
8.29640 0.000044741607
8.30220 0.000044760941
8.30800 0.000044780276
8.31380 0.000044799611
8.31960 0.000044818946
8.32540 0.000044838281
8.33120 0.000044857616
8.33700 0.000044876951
8.34280 0.000044896286
8.34860 0.000044915621
8.35440 0.000044934955
8.36020 0.000044954290
8.36600 0.000044973625
8.37180 0.000044992960
8.37760 0.000045012295
8.38340 0.000045031630
8.38920 0.000045050965
8.39500 0.000045070300
8.40080 0.000045089635
8.40660 0.000045108969
8.41240 0.000045128304
8.41820 0.000045147639
8.42400 0.000045166974
8.42980 0.000045186309
8.43560 0.000045205644
8.44140 0.000045224979
8.44720 0.000045244314
8.45300 0.000045263649
8.45880 0.000045282983
8.46460 0.000045302318
8.47040 0.000045321653
8.47620 0.000045340988
8.48200 0.000045360323
8.48780 0.000045379658
8.49360 0.000045398993
8.49940 0.000045418328
8.50520 0.000045416716
8.51100 0.000045412688
8.51680 0.000045408660
8.52260 0.000045404632
8.52840 0.000045400604
8.53420 0.000045396576
8.54000 0.000045392548
8.54580 0.000045388520
8.55160 0.000045384492
8.55740 0.000045380464
8.56320 0.000045376435
8.56900 0.000045372407
8.57480 0.000045368379
8.58060 0.000045364351
8.58640 0.000045360323
8.59220 0.000045356295
8.59800 0.000045352267
8.60380 0.000045348239
8.60960 0.000045344211
8.61540 0.000045340183
8.62120 0.000045336154
8.62700 0.000045332126
8.63280 0.000045328098
8.63860 0.000045324070
8.64440 0.000045320042
8.65020 0.000045316014
8.65600 0.000045311986
8.66180 0.000045307958
8.66760 0.000045303930
8.67340 0.000045299902
8.67920 0.000045295873
8.68500 0.000045291845
8.69080 0.000045287817
8.69660 0.000045283789
8.70240 0.000045279761
8.70820 0.000045275733
8.71400 0.000045271705
8.71980 0.000045267677
8.72560 0.000045263649
8.73140 0.000045259621
8.73720 0.000045255592
8.74300 0.000045251564
8.74880 0.000045247536
8.75460 0.000045243508
8.76040 0.000045239480
8.76620 0.000045235452
8.77200 0.000045231424
8.77780 0.000045227396
8.78360 0.000045223368
8.78940 0.000045219339
8.79520 0.000045215311
8.80100 0.000045211283
8.80680 0.000045207255
8.81260 0.000045203227
8.81840 0.000045199199
8.82420 0.000045195171
8.83000 0.000045191143
8.83580 0.000045187115
8.84160 0.000045183087
8.84740 0.000045179058
8.85320 0.000045175030
8.85900 0.000045171002
8.86480 0.000045166974
8.87060 0.000045162946
8.87640 0.000045158918
8.88220 0.000045154890
8.88800 0.000045150862
8.89380 0.000045146834
8.89960 0.000045142806
8.90540 0.000045138777
8.91120 0.000045134749
8.91700 0.000045130721
8.92280 0.000045126693
8.92860 0.000045122665
8.93440 0.000045118637
8.94020 0.000045114609
8.94600 0.000045110581
8.95180 0.000045106553
8.95760 0.000045102525
8.96340 0.000045098496
8.96920 0.000045094468
8.97500 0.000045090440
8.98080 0.000045086412
8.98660 0.000045082384
8.99240 0.000045078356
8.99820 0.000045074328
9.00400 0.000045065855
9.00980 0.000045055382
9.01560 0.000045044909
9.02140 0.000045034436
9.02720 0.000045023963
9.03300 0.000045013490
9.03880 0.000045003016
9.04460 0.000044992543
9.05040 0.000044982070
9.05620 0.000044971597
9.06200 0.000044961124
9.06780 0.000044950651
9.07360 0.000044940178
9.07940 0.000044929705
9.08520 0.000044919232
9.09100 0.000044908759
9.09680 0.000044898286
9.10260 0.000044887813
9.10840 0.000044877340
9.11420 0.000044866867
9.12000 0.000044856394
9.12580 0.000044845920
9.13160 0.000044835447
9.13740 0.000044824974
9.14320 0.000044814501
9.14900 0.000044804028
9.15480 0.000044793555
9.16060 0.000044783082
9.16640 0.000044772609
9.17220 0.000044762136
9.17800 0.000044751663
9.18380 0.000044741190
9.18960 0.000044730717
9.19540 0.000044720244
9.20120 0.000044709771
9.20700 0.000044699298
9.21280 0.000044688824
9.21860 0.000044678351
9.22440 0.000044667878
9.23020 0.000044657405
9.23600 0.000044646932
9.24180 0.000044636459
9.24760 0.000044625986
9.25340 0.000044615513
9.25920 0.000044605040
9.26500 0.000044594567
9.27080 0.000044584094
9.27660 0.000044573621
9.28240 0.000044563148
9.28820 0.000044552675
9.29400 0.000044542202
9.29980 0.000044531728
9.30560 0.000044521255
9.31140 0.000044510782
9.31720 0.000044500309
9.32300 0.000044489836
9.32880 0.000044479363
9.33460 0.000044468890
9.34040 0.000044458417
9.34620 0.000044447944
9.35200 0.000044437471
9.35780 0.000044426998
9.36360 0.000044416525
9.36940 0.000044406052
9.37520 0.000044395579
9.38100 0.000044385106
9.38680 0.000044374632
9.39260 0.000044364159
9.39840 0.000044353686
9.40420 0.000044343213
9.41000 0.000044332740
9.41580 0.000044322267
9.42160 0.000044311794
9.42740 0.000044301321
9.43320 0.000044290848
9.43900 0.000044280375
9.44480 0.000044269902
9.45060 0.000044259429
9.45640 0.000044248956
9.46220 0.000044238483
9.46800 0.000044228010
9.47380 0.000044217537
9.47960 0.000044207063
9.48540 0.000044196590
9.49120 0.000044186117
9.49700 0.000044175644
9.50280 0.000044165949
9.50860 0.000044157087
9.51440 0.000044148225
9.52020 0.000044139364
9.52600 0.000044130502
9.53180 0.000044121640
9.53760 0.000044112778
9.54340 0.000044103916
9.54920 0.000044095054
9.55500 0.000044086193
9.56080 0.000044077331
9.56660 0.000044068469
9.57240 0.000044059607
9.57820 0.000044050745
9.58400 0.000044041883
9.58980 0.000044033022
9.59560 0.000044024160
9.60140 0.000044015298
9.60720 0.000044006436
9.61300 0.000043997574
9.61880 0.000043988713
9.62460 0.000043979851
9.63040 0.000043970989
9.63620 0.000043962127
9.64200 0.000043953265
9.64780 0.000043944403
9.65360 0.000043935542
9.65940 0.000043926680
9.66520 0.000043917818
9.67100 0.000043908956
9.67680 0.000043900094
9.68260 0.000043891232
9.68840 0.000043882371
9.69420 0.000043873509
9.70000 0.000043864647
9.70580 0.000043855785
9.71160 0.000043846923
9.71740 0.000043838061
9.72320 0.000043829200
9.72900 0.000043820338
9.73480 0.000043811476
9.74060 0.000043802614
9.74640 0.000043793752
9.75220 0.000043784891
9.75800 0.000043776029
9.76380 0.000043767167
9.76960 0.000043758305
9.77540 0.000043749443
9.78120 0.000043740581
9.78700 0.000043731720
9.79280 0.000043722858
9.79860 0.000043713996
9.80440 0.000043705134
9.81020 0.000043696272
9.81600 0.000043687410
9.82180 0.000043678549
9.82760 0.000043669687
9.83340 0.000043660825
9.83920 0.000043651963
9.84500 0.000043643101
9.85080 0.000043634239
9.85660 0.000043625378
9.86240 0.000043616516
9.86820 0.000043607654
9.87400 0.000043598792
9.87980 0.000043589930
9.88560 0.000043581069
9.89140 0.000043572207
9.89720 0.000043563345
9.90300 0.000043554483
9.90880 0.000043545621
9.91460 0.000043536759
9.92040 0.000043527898
9.92620 0.000043519036
9.93200 0.000043510174
9.93780 0.000043501312
9.94360 0.000043492450
9.94940 0.000043483588
9.95520 0.000043474727
9.96100 0.000043465865
9.96680 0.000043457003
9.97260 0.000043448141
9.97840 0.000043439279
9.98420 0.000043430417
9.99000 0.000043421556
9.99580 0.000043412694
10.00160 0.000043411833
10.00740 0.000043431973
10.01320 0.000043452114
10.01900 0.000043472254
10.02480 0.000043492395
10.03060 0.000043512535
10.03640 0.000043532676
10.04220 0.000043552816
10.04800 0.000043572957
10.05380 0.000043593097
10.05960 0.000043613238
10.06540 0.000043633378
10.07120 0.000043653519
10.07700 0.000043673659
10.08280 0.000043693800
10.08860 0.000043713940
10.09440 0.000043734081
10.10020 0.000043754221
10.10600 0.000043774362
10.11180 0.000043794502
10.11760 0.000043814643
10.12340 0.000043834783
10.12920 0.000043854924
10.13500 0.000043875064
10.14080 0.000043895205
10.14660 0.000043915345
10.15240 0.000043935486
10.15820 0.000043955626
10.16400 0.000043975767
10.16980 0.000043995908
10.17560 0.000044016048
10.18140 0.000044036189
10.18720 0.000044056329
10.19300 0.000044076470
10.19880 0.000044096610
10.20460 0.000044116751
10.21040 0.000044136891
10.21620 0.000044157032
10.22200 0.000044177172
10.22780 0.000044197313
10.23360 0.000044217453
10.23940 0.000044237594
10.24520 0.000044257734
10.25100 0.000044277875
10.25680 0.000044298015
10.26260 0.000044318156
10.26840 0.000044338296
10.27420 0.000044358437
10.28000 0.000044378577
10.28580 0.000044398718
10.29160 0.000044418858
10.29740 0.000044438999
10.30320 0.000044459139
10.30900 0.000044479280
10.31480 0.000044499420
10.32060 0.000044519561
10.32640 0.000044539701
10.33220 0.000044559842
10.33800 0.000044579982
10.34380 0.000044600123
10.34960 0.000044620263
10.35540 0.000044640404
10.36120 0.000044660544
10.36700 0.000044680685
10.37280 0.000044700825
10.37860 0.000044720966
10.38440 0.000044741106
10.39020 0.000044761247
10.39600 0.000044781388
10.40180 0.000044801528
10.40760 0.000044821669
10.41340 0.000044841809
10.41920 0.000044861950
10.42500 0.000044882090
10.43080 0.000044902231
10.43660 0.000044922371
10.44240 0.000044942512
10.44820 0.000044962652
10.45400 0.000044982793
10.45980 0.000045002933
10.46560 0.000045023074
10.47140 0.000045043214
10.47720 0.000045063355
10.48300 0.000045083495
10.48880 0.000045103636
10.49460 0.000045123776
10.50040 0.000045140083
10.50620 0.000045104636
10.51200 0.000045069188
10.51780 0.000045033741
10.52360 0.000044998294
10.52940 0.000044962847
10.53520 0.000044927399
10.54100 0.000044891952
10.54680 0.000044856505
10.55260 0.000044821057
10.55840 0.000044785610
10.56420 0.000044750163
10.57000 0.000044714715
10.57580 0.000044679268
10.58160 0.000044643821
10.58740 0.000044608374
10.59320 0.000044572926
10.59900 0.000044537479
10.60480 0.000044502032
10.61060 0.000044466584
10.61640 0.000044431137
10.62220 0.000044395690
10.62800 0.000044360242
10.63380 0.000044324795
10.63960 0.000044289348
10.64540 0.000044253901
10.65120 0.000044218453
10.65700 0.000044183006
10.66280 0.000044147559
10.66860 0.000044112111
10.67440 0.000044076664
10.68020 0.000044041217
10.68600 0.000044005769
10.69180 0.000043970322
10.69760 0.000043934875
10.70340 0.000043899428
10.70920 0.000043863980
10.71500 0.000043828533
10.72080 0.000043793086
10.72660 0.000043757638
10.73240 0.000043722191
10.73820 0.000043686744
10.74400 0.000043651296
10.74980 0.000043615849
10.75560 0.000043580402
10.76140 0.000043544955
10.76720 0.000043509507
10.77300 0.000043474060
10.77880 0.000043438613
10.78460 0.000043403165
10.79040 0.000043367718
10.79620 0.000043332271
10.80200 0.000043296823
10.80780 0.000043261376
10.81360 0.000043225929
10.81940 0.000043190481
10.82520 0.000043155034
10.83100 0.000043119587
10.83680 0.000043084140
10.84260 0.000043048692
10.84840 0.000043013245
10.85420 0.000042977798
10.86000 0.000042942350
10.86580 0.000042906903
10.87160 0.000042871456
10.87740 0.000042836008
10.88320 0.000042800561
10.88900 0.000042765114
10.89480 0.000042729667
10.90060 0.000042694219
10.90640 0.000042658772
10.91220 0.000042623325
10.91800 0.000042587877
10.92380 0.000042552430
10.92960 0.000042516983
10.93540 0.000042481535
10.94120 0.000042446088
10.94700 0.000042410641
10.95280 0.000042375194
10.95860 0.000042339746
10.96440 0.000042304299
10.97020 0.000042268852
10.97600 0.000042233404
10.98180 0.000042197957
10.98760 0.000042162510
10.99340 0.000042127062
10.99920 0.000042091615
11.00500 0.000042071447
11.01080 0.000042053723
11.01660 0.000042036000
11.02240 0.000042018276
11.02820 0.000042000552
11.03400 0.000041982829
11.03980 0.000041965105
11.04560 0.000041947381
11.05140 0.000041929658
11.05720 0.000041911934
11.06300 0.000041894210
11.06880 0.000041876487
11.07460 0.000041858763
11.08040 0.000041841039
11.08620 0.000041823316
11.09200 0.000041805592
11.09780 0.000041787868
11.10360 0.000041770145
11.10940 0.000041752421
11.11520 0.000041734697
11.12100 0.000041716974
11.12680 0.000041699250
11.13260 0.000041681527
11.13840 0.000041663803
11.14420 0.000041646079
11.15000 0.000041628356
11.15580 0.000041610632
11.16160 0.000041592908
11.16740 0.000041575185
11.17320 0.000041557461
11.17900 0.000041539737
11.18480 0.000041522014
11.19060 0.000041504290
11.19640 0.000041486566
11.20220 0.000041468843
11.20800 0.000041451119
11.21380 0.000041433395
11.21960 0.000041415672
11.22540 0.000041397948
11.23120 0.000041380224
11.23700 0.000041362501
11.24280 0.000041344777
11.24860 0.000041327054
11.25440 0.000041309330
11.26020 0.000041291606
11.26600 0.000041273883
11.27180 0.000041256159
11.27760 0.000041238435
11.28340 0.000041220712
11.28920 0.000041202988
11.29500 0.000041185264
11.30080 0.000041167541
11.30660 0.000041149817
11.31240 0.000041132093
11.31820 0.000041114370
11.32400 0.000041096646
11.32980 0.000041078922
11.33560 0.000041061199
11.34140 0.000041043475
11.34720 0.000041025751
11.35300 0.000041008028
11.35880 0.000040990304
11.36460 0.000040972580
11.37040 0.000040954857
11.37620 0.000040937133
11.38200 0.000040919410
11.38780 0.000040901686
11.39360 0.000040883962
11.39940 0.000040866239
11.40520 0.000040848515
11.41100 0.000040830791
11.41680 0.000040813068
11.42260 0.000040795344
11.42840 0.000040777620
11.43420 0.000040759897
11.44000 0.000040742173
11.44580 0.000040724449
11.45160 0.000040706726
11.45740 0.000040689002
11.46320 0.000040671278
11.46900 0.000040653555
11.47480 0.000040635831
11.48060 0.000040618107
11.48640 0.000040600384
11.49220 0.000040582660
11.49800 0.000040564937
11.50380 0.000040561992
11.50960 0.000040566826
11.51540 0.000040571659
11.52120 0.000040576493
11.52700 0.000040581327
11.53280 0.000040586160
11.53860 0.000040590994
11.54440 0.000040595828
11.55020 0.000040600662
11.55600 0.000040605495
11.56180 0.000040610329
11.56760 0.000040615163
11.57340 0.000040619997
11.57920 0.000040624830
11.58500 0.000040629664
11.59080 0.000040634498
11.59660 0.000040639331
11.60240 0.000040644165
11.60820 0.000040648999
11.61400 0.000040653833
11.61980 0.000040658666
11.62560 0.000040663500
11.63140 0.000040668334
11.63720 0.000040673167
11.64300 0.000040678001
11.64880 0.000040682835
11.65460 0.000040687669
11.66040 0.000040692502
11.66620 0.000040697336
11.67200 0.000040702170
11.67780 0.000040707004
11.68360 0.000040711837
11.68940 0.000040716671
11.69520 0.000040721505
11.70100 0.000040726338
11.70680 0.000040731172
11.71260 0.000040736006
11.71840 0.000040740840
11.72420 0.000040745673
11.73000 0.000040750507
11.73580 0.000040755341
11.74160 0.000040760174
11.74740 0.000040765008
11.75320 0.000040769842
11.75900 0.000040774676
11.76480 0.000040779509
11.77060 0.000040784343
11.77640 0.000040789177
11.78220 0.000040794011
11.78800 0.000040798844
11.79380 0.000040803678
11.79960 0.000040808512
11.80540 0.000040813345
11.81120 0.000040818179
11.81700 0.000040823013
11.82280 0.000040827847
11.82860 0.000040832680
11.83440 0.000040837514
11.84020 0.000040842348
11.84600 0.000040847181
11.85180 0.000040852015
11.85760 0.000040856849
11.86340 0.000040861683
11.86920 0.000040866516
11.87500 0.000040871350
11.88080 0.000040876184
11.88660 0.000040881018
11.89240 0.000040885851
11.89820 0.000040890685
11.90400 0.000040895519
11.90980 0.000040900352
11.91560 0.000040905186
11.92140 0.000040910020
11.92720 0.000040914854
11.93300 0.000040919687
11.93880 0.000040924521
11.94460 0.000040929355
11.95040 0.000040934189
11.95620 0.000040939022
11.96200 0.000040943856
11.96780 0.000040948690
11.97360 0.000040953523
11.97940 0.000040958357
11.98520 0.000040963191
11.99100 0.000040968025
11.99680 0.000040972858
12.00260 0.000040970830
12.00840 0.000040960357
12.01420 0.000040949884
12.02000 0.000040939411
12.02580 0.000040928938
12.03160 0.000040918465
12.03740 0.000040907992
12.04320 0.000040897519
12.04900 0.000040887046
12.05480 0.000040876573
12.06060 0.000040866100
12.06640 0.000040855627
12.07220 0.000040845154
12.07800 0.000040834680
12.08380 0.000040824207
12.08960 0.000040813734
12.09540 0.000040803261
12.10120 0.000040792788
12.10700 0.000040782315
12.11280 0.000040771842
12.11860 0.000040761369
12.12440 0.000040750896
12.13020 0.000040740423
12.13600 0.000040729950
12.14180 0.000040719477
12.14760 0.000040709004
12.15340 0.000040698531
12.15920 0.000040688058
12.16500 0.000040677584
12.17080 0.000040667111
12.17660 0.000040656638
12.18240 0.000040646165
12.18820 0.000040635692
12.19400 0.000040625219
12.19980 0.000040614746
12.20560 0.000040604273
12.21140 0.000040593800
12.21720 0.000040583327
12.22300 0.000040572854
12.22880 0.000040562381
12.23460 0.000040551908
12.24040 0.000040541435
12.24620 0.000040530962
12.25200 0.000040520488
12.25780 0.000040510015
12.26360 0.000040499542
12.26940 0.000040489069
12.27520 0.000040478596
12.28100 0.000040468123
12.28680 0.000040457650
12.29260 0.000040447177
12.29840 0.000040436704
12.30420 0.000040426231
12.31000 0.000040415758
12.31580 0.000040405285
12.32160 0.000040394812
12.32740 0.000040384339
12.33320 0.000040373866
12.33900 0.000040363392
12.34480 0.000040352919
12.35060 0.000040342446
12.35640 0.000040331973
12.36220 0.000040321500
12.36800 0.000040311027
12.37380 0.000040300554
12.37960 0.000040290081
12.38540 0.000040279608
12.39120 0.000040269135
12.39700 0.000040258662
12.40280 0.000040248189
12.40860 0.000040237716
12.41440 0.000040227243
12.42020 0.000040216770
12.42600 0.000040206296
12.43180 0.000040195823
12.43760 0.000040185350
12.44340 0.000040174877
12.44920 0.000040164404
12.45500 0.000040153931
12.46080 0.000040143458
12.46660 0.000040132985
12.47240 0.000040122512
12.47820 0.000040112039
12.48400 0.000040101566
12.48980 0.000040091093
12.49560 0.000040080620
12.50140 0.000040072869
12.50720 0.000040073675
12.51300 0.000040074480
12.51880 0.000040075286
12.52460 0.000040076092
12.53040 0.000040076897
12.53620 0.000040077703
12.54200 0.000040078508
12.54780 0.000040079314
12.55360 0.000040080120
12.55940 0.000040080925
12.56520 0.000040081731
12.57100 0.000040082537
12.57680 0.000040083342
12.58260 0.000040084148
12.58840 0.000040084953
12.59420 0.000040085759
12.60000 0.000040086565
12.60580 0.000040087370
12.61160 0.000040088176
12.61740 0.000040088981
12.62320 0.000040089787
12.62900 0.000040090593
12.63480 0.000040091398
12.64060 0.000040092204
12.64640 0.000040093010
12.65220 0.000040093815
12.65800 0.000040094621
12.66380 0.000040095426
12.66960 0.000040096232
12.67540 0.000040097038
12.68120 0.000040097843
12.68700 0.000040098649
12.69280 0.000040099455
12.69860 0.000040100260
12.70440 0.000040101066
12.71020 0.000040101871
12.71600 0.000040102677
12.72180 0.000040103483
12.72760 0.000040104288
12.73340 0.000040105094
12.73920 0.000040105900
12.74500 0.000040106705
12.75080 0.000040107511
12.75660 0.000040108316
12.76240 0.000040109122
12.76820 0.000040109928
12.77400 0.000040110733
12.77980 0.000040111539
12.78560 0.000040112344
12.79140 0.000040113150
12.79720 0.000040113956
12.80300 0.000040114761
12.80880 0.000040115567
12.81460 0.000040116373
12.82040 0.000040117178
12.82620 0.000040117984
12.83200 0.000040118789
12.83780 0.000040119595
12.84360 0.000040120401
12.84940 0.000040121206
12.85520 0.000040122012
12.86100 0.000040122818
12.86680 0.000040123623
12.87260 0.000040124429
12.87840 0.000040125234
12.88420 0.000040126040
12.89000 0.000040126846
12.89580 0.000040127651
12.90160 0.000040128457
12.90740 0.000040129263
12.91320 0.000040130068
12.91900 0.000040130874
12.92480 0.000040131679
12.93060 0.000040132485
12.93640 0.000040133291
12.94220 0.000040134096
12.94800 0.000040134902
12.95380 0.000040135707
12.95960 0.000040136513
12.96540 0.000040137319
12.97120 0.000040138124
12.97700 0.000040138930
12.98280 0.000040139736
12.98860 0.000040140541
12.99440 0.000040141347
13.00020 0.000040141236
13.00600 0.000040115456
13.01180 0.000040089676
13.01760 0.000040063896
13.02340 0.000040038116
13.02920 0.000040012336
13.03500 0.000039986557
13.04080 0.000039960777
13.04660 0.000039934997
13.05240 0.000039909217
13.05820 0.000039883437
13.06400 0.000039857657
13.06980 0.000039831877
13.07560 0.000039806098
13.08140 0.000039780318
13.08720 0.000039754538
13.09300 0.000039728758
13.09880 0.000039702978
13.10460 0.000039677198
13.11040 0.000039651418
13.11620 0.000039625639
13.12200 0.000039599859
13.12780 0.000039574079
13.13360 0.000039548299
13.13940 0.000039522519
13.14520 0.000039496739
13.15100 0.000039470959
13.15680 0.000039445180
13.16260 0.000039419400
13.16840 0.000039393620
13.17420 0.000039367840
13.18000 0.000039342060
13.18580 0.000039316280
13.19160 0.000039290500
13.19740 0.000039264721
13.20320 0.000039238941
13.20900 0.000039213161
13.21480 0.000039187381
13.22060 0.000039161601
13.22640 0.000039135821
13.23220 0.000039110041
13.23800 0.000039084262
13.24380 0.000039058482
13.24960 0.000039032702
13.25540 0.000039006922
13.26120 0.000038981142
13.26700 0.000038955362
13.27280 0.000038929582
13.27860 0.000038903803
13.28440 0.000038878023
13.29020 0.000038852243
13.29600 0.000038826463
13.30180 0.000038800683
13.30760 0.000038774903
13.31340 0.000038749123
13.31920 0.000038723344
13.32500 0.000038697564
13.33080 0.000038671784
13.33660 0.000038646004
13.34240 0.000038620224
13.34820 0.000038594444
13.35400 0.000038568664
13.35980 0.000038542885
13.36560 0.000038517105
13.37140 0.000038491325
13.37720 0.000038465545
13.38300 0.000038439765
13.38880 0.000038413985
13.39460 0.000038388205
13.40040 0.000038362426
13.40620 0.000038336646
13.41200 0.000038310866
13.41780 0.000038285086
13.42360 0.000038259306
13.42940 0.000038233526
13.43520 0.000038207747
13.44100 0.000038181967
13.44680 0.000038156187
13.45260 0.000038130407
13.45840 0.000038104627
13.46420 0.000038078847
13.47000 0.000038053067
13.47580 0.000038027288
13.48160 0.000038001508
13.48740 0.000037975728
13.49320 0.000037949948
13.49900 0.000037924168
13.50480 0.000037942392
13.51060 0.000037969783
13.51640 0.000037997174
13.52220 0.000038024565
13.52800 0.000038051956
13.53380 0.000038079347
13.53960 0.000038106738
13.54540 0.000038134129
13.55120 0.000038161521
13.55700 0.000038188912
13.56280 0.000038216303
13.56860 0.000038243694
13.57440 0.000038271085
13.58020 0.000038298476
13.58600 0.000038325867
13.59180 0.000038353258
13.59760 0.000038380649
13.60340 0.000038408040
13.60920 0.000038435432
13.61500 0.000038462823
13.62080 0.000038490214
13.62660 0.000038517605
13.63240 0.000038544996
13.63820 0.000038572387
13.64400 0.000038599778
13.64980 0.000038627169
13.65560 0.000038654560
13.66140 0.000038681951
13.66720 0.000038709342
13.67300 0.000038736734
13.67880 0.000038764125
13.68460 0.000038791516
13.69040 0.000038818907
13.69620 0.000038846298
13.70200 0.000038873689
13.70780 0.000038901080
13.71360 0.000038928471
13.71940 0.000038955862
13.72520 0.000038983253
13.73100 0.000039010645
13.73680 0.000039038036
13.74260 0.000039065427
13.74840 0.000039092818
13.75420 0.000039120209
13.76000 0.000039147600
13.76580 0.000039174991
13.77160 0.000039202382
13.77740 0.000039229773
13.78320 0.000039257164
13.78900 0.000039284556
13.79480 0.000039311947
13.80060 0.000039339338
13.80640 0.000039366729
13.81220 0.000039394120
13.81800 0.000039421511
13.82380 0.000039448902
13.82960 0.000039476293
13.83540 0.000039503684
13.84120 0.000039531075
13.84700 0.000039558466
13.85280 0.000039585858
13.85860 0.000039613249
13.86440 0.000039640640
13.87020 0.000039668031
13.87600 0.000039695422
13.88180 0.000039722813
13.88760 0.000039750204
13.89340 0.000039777595
13.89920 0.000039804986
13.90500 0.000039832377
13.91080 0.000039859769
13.91660 0.000039887160
13.92240 0.000039914551
13.92820 0.000039941942
13.93400 0.000039969333
13.93980 0.000039996724
13.94560 0.000040024115
13.95140 0.000040051506
13.95720 0.000040078897
13.96300 0.000040106288
13.96880 0.000040133680
13.97460 0.000040161071
13.98040 0.000040188462
13.98620 0.000040215853
13.99200 0.000040243244
13.99780 0.000040270635
14.00360 0.000040307527
14.00940 0.000040350225
14.01520 0.000040392923
14.02100 0.000040435621
14.02680 0.000040478318
14.03260 0.000040521016
14.03840 0.000040563714
14.04420 0.000040606412
14.05000 0.000040649110
14.05580 0.000040691808
14.06160 0.000040734506
14.06740 0.000040777204
14.07320 0.000040819902
14.07900 0.000040862599
14.08480 0.000040905297
14.09060 0.000040947995
14.09640 0.000040990693
14.10220 0.000041033391
14.10800 0.000041076089
14.11380 0.000041118787
14.11960 0.000041161485
14.12540 0.000041204182
14.13120 0.000041246880
14.13700 0.000041289578
14.14280 0.000041332276
14.14860 0.000041374974
14.15440 0.000041417672
14.16020 0.000041460370
14.16600 0.000041503068
14.17180 0.000041545766
14.17760 0.000041588463
14.18340 0.000041631161
14.18920 0.000041673859
14.19500 0.000041716557
14.20080 0.000041759255
14.20660 0.000041801953
14.21240 0.000041844651
14.21820 0.000041887349
14.22400 0.000041930047
14.22980 0.000041972744
14.23560 0.000042015442
14.24140 0.000042058140
14.24720 0.000042100838
14.25300 0.000042143536
14.25880 0.000042186234
14.26460 0.000042228932
14.27040 0.000042271630
14.27620 0.000042314328
14.28200 0.000042357025
14.28780 0.000042399723
14.29360 0.000042442421
14.29940 0.000042485119
14.30520 0.000042527817
14.31100 0.000042570515
14.31680 0.000042613213
14.32260 0.000042655911
14.32840 0.000042698609
14.33420 0.000042741306
14.34000 0.000042784004
14.34580 0.000042826702
14.35160 0.000042869400
14.35740 0.000042912098
14.36320 0.000042954796
14.36900 0.000042997494
14.37480 0.000043040192
14.38060 0.000043082889
14.38640 0.000043125587
14.39220 0.000043168285
14.39800 0.000043210983
14.40380 0.000043253681
14.40960 0.000043296379
14.41540 0.000043339077
14.42120 0.000043381775
14.42700 0.000043424473
14.43280 0.000043467170
14.43860 0.000043509868
14.44440 0.000043552566
14.45020 0.000043595264
14.45600 0.000043637962
14.46180 0.000043680660
14.46760 0.000043723358
14.47340 0.000043766056
14.47920 0.000043808754
14.48500 0.000043851451
14.49080 0.000043894149
14.49660 0.000043936847
14.50240 0.000043962544
14.50820 0.000043964155
14.51400 0.000043965766
14.51980 0.000043967377
14.52560 0.000043968989
14.53140 0.000043970600
14.53720 0.000043972211
14.54300 0.000043973822
14.54880 0.000043975434
14.55460 0.000043977045
14.56040 0.000043978656
14.56620 0.000043980267
14.57200 0.000043981879
14.57780 0.000043983490
14.58360 0.000043985101
14.58940 0.000043986712
14.59520 0.000043988324
14.60100 0.000043989935
14.60680 0.000043991546
14.61260 0.000043993157
14.61840 0.000043994769
14.62420 0.000043996380
14.63000 0.000043997991
14.63580 0.000043999602
14.64160 0.000044001214
14.64740 0.000044002825
14.65320 0.000044004436
14.65900 0.000044006047
14.66480 0.000044007658
14.67060 0.000044009270
14.67640 0.000044010881
14.68220 0.000044012492
14.68800 0.000044014103
14.69380 0.000044015715
14.69960 0.000044017326
14.70540 0.000044018937
14.71120 0.000044020548
14.71700 0.000044022160
14.72280 0.000044023771
14.72860 0.000044025382
14.73440 0.000044026993
14.74020 0.000044028605
14.74600 0.000044030216
14.75180 0.000044031827
14.75760 0.000044033438
14.76340 0.000044035050
14.76920 0.000044036661
14.77500 0.000044038272
14.78080 0.000044039883
14.78660 0.000044041495
14.79240 0.000044043106
14.79820 0.000044044717
14.80400 0.000044046328
14.80980 0.000044047939
14.81560 0.000044049551
14.82140 0.000044051162
14.82720 0.000044052773
14.83300 0.000044054384
14.83880 0.000044055996
14.84460 0.000044057607
14.85040 0.000044059218
14.85620 0.000044060829
14.86200 0.000044062441
14.86780 0.000044064052
14.87360 0.000044065663
14.87940 0.000044067274
14.88520 0.000044068886
14.89100 0.000044070497
14.89680 0.000044072108
14.90260 0.000044073719
14.90840 0.000044075331
14.91420 0.000044076942
14.92000 0.000044078553
14.92580 0.000044080164
14.93160 0.000044081776
14.93740 0.000044083387
14.94320 0.000044084998
14.94900 0.000044086609
14.95480 0.000044088221
14.96060 0.000044089832
14.96640 0.000044091443
14.97220 0.000044093054
14.97800 0.000044094665
14.98380 0.000044096277
14.98960 0.000044097888
14.99540 0.000044099499
15.00120 0.000044097944
15.00700 0.000044084248
15.01280 0.000044070552
15.01860 0.000044056857
15.02440 0.000048132128
15.03020 0.000053505487
15.03600 0.000058875494
15.04180 0.000065883092
15.04760 0.000076531721
15.05340 0.000087173707
15.05920 0.000097809048
15.06500 0.000107653837
15.07080 0.000117367084
15.07660 0.000127074254
15.08240 0.000136362753
15.08820 0.000145061103
15.09400 0.000153754000
15.09980 0.000162441441
15.10560 0.000169270740
15.11140 0.000176029595
15.11720 0.000182784194
15.12300 0.000187772112
15.12880 0.000191112461
15.13460 0.000194450685
15.14040 0.000197477675
15.14620 0.000196331091
15.15200 0.000195185187
15.15780 0.000194039962
15.16360 0.000190405789
15.16940 0.000185252894
15.17520 0.000180103191
15.18100 0.000174701606
15.18680 0.000168079400
15.19260 0.000161461315
15.19840 0.000154847349
15.20420 0.000149193799
15.21000 0.000143907956
15.21580 0.000138625404
15.22160 0.000134065311
15.22740 0.000131395282
15.23320 0.000128726904
15.23900 0.000126060179
15.24480 0.000125534335
15.25060 0.000125454330
15.25640 0.000125374350
15.26220 0.000125975493
15.26800 0.000127690402
15.27380 0.000129404205
15.27960 0.000131116903
15.28540 0.000133580319
15.29120 0.000136097827
15.29700 0.000138613721
15.30280 0.000141120589
15.30860 0.000143617910
15.31440 0.000146113626
15.32020 0.000148567261
15.32600 0.000149886367
15.33180 0.000151204610
15.33760 0.000152521989
15.34340 0.000152461582
15.34920 0.000151429546
15.35500 0.000150398132
15.36080 0.000148955750
15.36660 0.000144942627
15.37240 0.000140932017
15.37820 0.000136923919
15.38400 0.000131216834
15.38980 0.000124747908
15.39560 0.000118283060
15.40140 0.000111573503
15.40720 0.000104086533
15.41300 0.000096604294
15.41880 0.000089126786
15.42460 0.000082392993
15.43040 0.000075856178
15.43620 0.000069323502
15.44200 0.000063805342
15.44780 0.000060209786
15.45360 0.000056616505
15.45940 0.000053025499
15.46520 0.000052793295
15.47100 0.000052948397
15.47680 0.000053103390
15.48260 0.000054765764
15.48840 0.000058281851
15.49420 0.000061795685
15.50000 0.000065307264
15.50580 0.000070803647
15.51160 0.000076294214
15.51740 0.000081778964
15.52320 0.000087444567
15.52900 0.000093255746
15.53480 0.000099060753
15.54060 0.000104757162
15.54640 0.000109560299
15.55220 0.000114358308
15.55800 0.000119151189
15.56380 0.000123219141
15.56960 0.000126904085
15.57540 0.000130585061
15.58120 0.000134502359
15.58700 0.000139336054
15.59280 0.000144164552
15.59860 0.000148987853
15.60440 0.000156785668
15.61020 0.000165522712
15.61600 0.000174250390
15.62180 0.000184866912
15.62760 0.000199688051
15.63340 0.000214493324
15.63920 0.000229282731
15.64500 0.000250116385
15.65080 0.000271896819
15.65660 0.000293653901
15.66240 0.000317748952
15.66820 0.000345161555
15.67400 0.000372544717
15.67980 0.000399898437
15.68560 0.000428871218
15.69140 0.000457871639
15.69720 0.000486840793
15.70300 0.000514967182
15.70880 0.000542306179
15.71460 0.000569615591
15.72040 0.000596639925
15.72620 0.000620187677
15.73200 0.000643709816
15.73780 0.000667206342
15.74360 0.000688125145
15.74940 0.000707462295
15.75520 0.000726778251
15.76100 0.000745764173
15.76680 0.000763247599
15.77260 0.000780711760
15.77840 0.000798156656
15.78420 0.000815959875
15.79000 0.000833887186
15.79580 0.000851794670
15.80160 0.000870917039
15.80740 0.000893257619
15.81320 0.000915573533
15.81900 0.000937864783
15.82480 0.000965098206
15.83060 0.000993335782
15.83640 0.001021542194
15.84220 0.001052371292
15.84800 0.001087506658
15.85380 0.001122603269
15.85960 0.001157661127
15.86540 0.001202688298
15.87120 0.001248406770
15.87700 0.001294074803
15.88280 0.001343141886
15.88860 0.001395848643
15.89440 0.001448497180
15.90020 0.001501448890
15.90600 0.001564455510
15.91180 0.001627392478
15.91760 0.001690259795
15.92340 0.001758599080
15.92920 0.001830772249
15.93500 0.001902865434
15.94080 0.001975714782
15.94660 0.002053706289
15.95240 0.002131611176
15.95820 0.002209429440
15.96400 0.002298295992
15.96980 0.002392071665
15.97560 0.002485743000
15.98140 0.002581414152
15.98720 0.002683588076
15.99300 0.002785648082
15.99880 0.002887594169
16.00460 0.003004706707
16.01040 0.003125806433
16.01620 0.003246920421
16.02200 0.003376339057
16.02780 0.003521525591
16.03360 0.003666729224
16.03940 0.003811949956
16.04520 0.003972083087
16.05100 0.004133953863
16.05680 0.004295843697
16.06260 0.004476374209
16.06840 0.004679846240
16.07420 0.004883342227
16.08000 0.005086862169
16.08580 0.005326811367
16.09160 0.005566788810
16.09740 0.005806794500
16.10320 0.006070205716
16.10900 0.006352643091
16.11480 0.006635113705
16.12060 0.006923841579
16.12640 0.007266548118
16.13220 0.007609294986
16.13800 0.007952082180
16.14380 0.008328646175
16.14960 0.008723011554
16.15540 0.009117423327
16.16120 0.009527661590
16.16700 0.009998442035
16.17280 0.010469277856
16.17860 0.010940169054
16.18440 0.011479448109
16.19020 0.012040534019
16.19600 0.012601685911
16.20180 0.013193967026
16.20760 0.013855351268
16.21340 0.014516813276
16.21920 0.015178353048
16.22500 0.015960087970
16.23080 0.016761134708
16.23660 0.017562275610
16.24240 0.018430685596
16.24820 0.019394367720
16.25400 0.020358163112
16.25980 0.021322071772
16.26560 0.022474255351
16.27140 0.023633294791
16.27720 0.024792470425
16.28300 0.026071863484
16.28880 0.027463489269
16.29460 0.028855278557
16.30040 0.030266149179
16.30620 0.031932591268
16.31200 0.033599229121
16.31780 0.035266062738
16.32360 0.037137291435
16.32940 0.039133535712
16.33520 0.041130014436
16.34100 0.043192188913
16.34680 0.045568838273
16.35260 0.047945766714
16.35840 0.050322974236
16.36420 0.053013283211
16.37000 0.055823085464
16.37580 0.058633217569
16.38160 0.061582286467
16.38740 0.064895566098
16.39320 0.068209234625
16.39900 0.071523292047
16.40480 0.075283675721
16.41060 0.079137409755
16.41640 0.082991595988
16.42220 0.087053781789
16.42800 0.091456087083
16.43380 0.095858908848
16.43960 0.100262247085
16.44540 0.105166765119
16.45120 0.110108946770
16.45700 0.115051708042
16.46280 0.120215505579
16.46860 0.125616126036
16.47440 0.131017379732
16.48020 0.136431450536
16.48600 0.142187324319
16.49180 0.147943872821
16.49760 0.153701096042
16.50340 0.159625396457
16.50920 0.165670087327
16.51500 0.171718296383
16.52080 0.177784799459
16.52660 0.183947205407
16.53240 0.190113192342
16.53820 0.196282760263
16.54400 0.202410010759
16.54980 0.208520155035
16.55560 0.214633841327
16.56140 0.220700375924
16.56720 0.226611053179
16.57300 0.232525149585
16.57880 0.238442665141
16.58460 0.244082971303
16.59040 0.249653303794
16.59620 0.255226848674
16.60200 0.260620758078
16.60780 0.265670260757
16.61360 0.270722666242
16.61940 0.275777974532
16.62520 0.280271219361
16.63100 0.284701830112
16.63680 0.289134976191
16.64260 0.293265764081
16.64840 0.297023546776
16.65420 0.300783468516
16.66000 0.304545529301
16.66580 0.307602052911
16.67160 0.310660303724
16.67740 0.313720281740
16.68320 0.316416675453
16.68900 0.318817682064
16.69480 0.321220030880
16.70060 0.323562367527
16.70640 0.325374118382
16.71220 0.327186866884
16.71800 0.329000613033
16.72380 0.330474758456
16.72960 0.331770389573
16.73540 0.333066716673
16.74120 0.334279174694
16.74700 0.335168019624
16.75280 0.336057323566
16.75860 0.336947086521
16.76440 0.337607859164
16.77020 0.338195930202
16.77600 0.338784285101
16.78180 0.339303111978
16.78760 0.339666999925
16.79340 0.340031041578
16.79920 0.340395236935
16.80500 0.340635382548
16.81080 0.340855731792
16.81660 0.341076151474
16.82240 0.341271176652
16.82820 0.341430171811
16.83400 0.341589201874
16.83980 0.341748266842
16.84560 0.341876508657
16.85140 0.342003665188
16.85720 0.342130838190
16.86300 0.342253749763
16.86880 0.342372681486
16.87460 0.342491624914
16.88040 0.342611587482
16.88620 0.342745166615
16.89200 0.342878765865
16.89780 0.343012385230
16.90360 0.343149353073
16.90940 0.343288377529
16.91520 0.343427425185
16.92100 0.343566559132
16.92680 0.343706019241
16.93260 0.343845502760
16.93840 0.343985009688
16.94420 0.344131437541
16.95000 0.344280521141
16.95580 0.344429633617
16.96160 0.344580730526
16.96740 0.344736992242
16.97320 0.344893286900
16.97900 0.345049614500
16.98480 0.345214380078
16.99060 0.345380934962
16.99640 0.345547528606
17.00220 0.345663875920
17.00800 0.345697928441
17.01380 0.345731948876
17.01960 0.345765937224
17.02540 0.345818804780
17.03120 0.345873034345
17.03700 0.345927224842
17.04280 0.345990232418
17.04860 0.346062684976
17.05440 0.346135092159
17.06020 0.346208052502
17.06600 0.346297723368
17.07180 0.346387342886
17.07760 0.346476911057
17.08340 0.346568647677
17.08920 0.346661898830
17.09500 0.346755097333
17.10080 0.346848310544
17.10660 0.346941892005
17.11240 0.347035420647
17.11820 0.347128896470
17.12400 0.347221141496
17.12980 0.347312804112
17.13560 0.347404414496
17.14140 0.347493941691
17.14720 0.347577035439
17.15300 0.347660079858
17.15880 0.347743074949
17.16460 0.347816452789
17.17040 0.347887289054
17.17620 0.347958080153
17.18200 0.348023324335
17.18780 0.348078073727
17.19360 0.348132783462
17.19940 0.348187453541
17.20520 0.348225606893
17.21100 0.348261825410
17.21680 0.348298010621
17.22260 0.348329527342
17.22840 0.348355308506
17.23420 0.348381059938
17.24000 0.348406781638
17.24580 0.348431379538
17.25160 0.348455948084
17.25740 0.348480487277
17.26320 0.348514448990
17.26900 0.348556056395
17.27480 0.348597628518
17.28060 0.348641024601
17.28640 0.348700495409
17.29220 0.348759924710
17.29800 0.348819312504
17.30380 0.348892095493
17.30960 0.348971903041
17.31540 0.349051661976
17.32120 0.349131598147
17.32700 0.349212351234
17.33280 0.349293055329
17.33860 0.349373710433
17.34440 0.349446316963
17.35020 0.349516332397
17.35600 0.349586302498
17.36180 0.349648181720
17.36760 0.349692142515
17.37340 0.349736066976
17.37920 0.349779955103
17.38500 0.349795003304
17.39080 0.349805417401
17.39660 0.349815806771
17.40240 0.349813704706
17.40820 0.349793924144
17.41400 0.349774129327
17.41980 0.349754320253
17.42560 0.349709280645
17.43140 0.349663335125
17.43720 0.349617384433
17.44300 0.349566740488
17.44880 0.349511718220
17.45460 0.349456693934
17.46040 0.349401575999
17.46620 0.349345219286
17.47200 0.349288861016
17.47780 0.349232501191
17.48360 0.349183257013
17.48940 0.349138357445
17.49520 0.349093452326
17.50100 0.349037363827
17.50680 0.348927604095
17.51260 0.348817818164
17.51840 0.348708006034
17.52420 0.348610290307
17.53000 0.348517154757
17.53580 0.348423979369
17.54160 0.348334414315
17.54740 0.348254384239
17.55320 0.348174303531
17.55900 0.348094172191
17.56480 0.348020152259
17.57060 0.347947359893
17.57640 0.347874510812
17.58220 0.347803333896
17.58800 0.347734926771
17.59380 0.347666459202
17.59960 0.347597931189
17.60540 0.347528673781
17.61120 0.347459306946
17.61700 0.347389880255
17.62280 0.347319931793
17.62860 0.347249429148
17.63440 0.347178867433
17.64020 0.347108197216
17.64600 0.347036084499
17.65180 0.346963913889
17.65760 0.346891685385
17.66340 0.346818769791
17.66920 0.346745352865
17.67500 0.346671878929
17.68080 0.346598265836
17.68660 0.346524082596
17.69240 0.346449842838
17.69820 0.346375546559
17.70400 0.346301439793
17.70980 0.346227386975
17.71560 0.346153277342
17.72140 0.346079168231
17.72720 0.346005182386
17.73300 0.345931139530
17.73880 0.345857039664
17.74460 0.345782318546
17.75040 0.345707393751
17.75620 0.345632412535
17.76200 0.345556639843
17.76780 0.345479415313
17.77360 0.345402136129
17.77940 0.345324802289
17.78520 0.345242537860
17.79100 0.345159660448
17.79680 0.345076732895
17.80260 0.344990790935
17.80840 0.344901154487
17.81420 0.344811473393
17.82000 0.344721747651
17.82580 0.344623253720
17.83160 0.344524722403
17.83740 0.344426153701
17.84320 0.344323390224
17.84900 0.344217216357
17.85480 0.344111011385
17.86060 0.344004033265
17.86640 0.343890596311
17.87220 0.343777134238
17.87800 0.343663647045
17.88380 0.343547596568
17.88960 0.343430187777
17.89540 0.343312757104
17.90120 0.343194649578
17.90700 0.343074011046
17.91280 0.342953353282
17.91860 0.342832676285
17.92440 0.342711003280
17.93020 0.342589001200
17.93600 0.342466980966
17.94180 0.342344507211
17.94760 0.342221048589
17.95340 0.342097572992
17.95920 0.341974080419
17.96500 0.341849464154
17.97080 0.341724654844
17.97660 0.341599829638
17.98240 0.341474361518
17.98820 0.341347990128
17.99400 0.341221604118
17.99980 0.341095203487
18.00560 0.341093698122
18.01140 0.341096652259
18.01720 0.341099605059
18.02300 0.341102436116
18.02880 0.341105153471
18.03460 0.341107869508
18.04040 0.341110792909
18.04620 0.341116532051
18.05200 0.341122269632
18.05780 0.341128005653
18.06360 0.341136340177
18.06940 0.341146261797
18.07520 0.341156181520
18.08100 0.341167383174
18.08680 0.341184744954
18.09260 0.341202104239
18.09840 0.341219461029
18.10420 0.341241364158
18.11000 0.341264997246
18.11580 0.341288627335
18.12160 0.341314083364
18.12740 0.341344337022
18.13320 0.341374587148
18.13900 0.341404833741
18.14480 0.341436327981
18.15060 0.341468079240
18.15640 0.341499826844
18.16220 0.341531614902
18.16800 0.341563471474
18.17380 0.341595324383
18.17960 0.341627173628
18.18540 0.341655880114
18.19120 0.341684350674
18.19700 0.341712817840
18.20280 0.341740495934
18.20860 0.341767328930
18.21440 0.341794158665
18.22020 0.341820937041
18.22600 0.341846365494
18.23180 0.341871790797
18.23760 0.341897212951
18.24340 0.341925629529
18.24920 0.341956158565
18.25500 0.341986684041
18.26080 0.342018103518
18.26660 0.342055128890
18.27240 0.342092150178
18.27820 0.342129167383
18.28400 0.342173472012
18.28980 0.342221053016
18.29560 0.342268629087
18.30140 0.342318555656
18.30720 0.342375879596
18.31300 0.342433197817
18.31880 0.342490510318
18.32460 0.342556015735
18.33040 0.342623653460
18.33620 0.342691284635
18.34200 0.342760871567
18.34780 0.342834180027
18.35360 0.342907481478
18.35940 0.342980775921
18.36520 0.343058019372
18.37100 0.343135711942
18.37680 0.343213397148
18.38260 0.343291074990
18.38840 0.343368745467
18.39420 0.343446408581
18.40000 0.343524064331
18.40580 0.343598810586
18.41160 0.343673549710
18.41740 0.343748281704
18.42320 0.343819612485
18.42900 0.343888178827
18.43480 0.343956738535
18.44060 0.344023814879
18.44640 0.344078086915
18.45220 0.344132353464
18.45800 0.344186614528
18.46380 0.344229542347
18.46960 0.344266503853
18.47540 0.344303461266
18.48120 0.344334869416
18.48700 0.344345018286
18.49280 0.344355165223
18.49860 0.344365310224
18.50440 0.344160462027
18.51020 0.343887211130
18.51600 0.343613964606
18.52180 0.343331784199
18.52760 0.343029775098
18.53340 0.342727815746
18.53920 0.342425906143
18.54500 0.342104762954
18.55080 0.341780617095
18.55660 0.341456556338
18.56240 0.341125107760
18.56820 0.340783177867
18.57400 0.340441361687
18.57980 0.340099659219
18.58560 0.339747774372
18.59140 0.339395652175
18.59720 0.339043660639
18.60300 0.338687184666
18.60880 0.338326542714
18.61460 0.337966045635
18.62040 0.337605166127
18.62620 0.337237319422
18.63200 0.336869629800
18.63780 0.336502097262
18.64360 0.336130132444
18.64940 0.335755529697
18.65520 0.335381095878
18.66100 0.335005461400
18.66680 0.334623429308
18.67260 0.334241578902
18.67840 0.333859910179
18.68420 0.333474655221
18.69000 0.333088153775
18.69580 0.332701842396
18.70160 0.332314662702
18.70740 0.331924898772
18.71320 0.331535331106
18.71900 0.331145959702
18.72480 0.330756505307
18.73060 0.330367189496
18.73640 0.329978070495
18.74220 0.329589488786
18.74800 0.329201660036
18.75380 0.328814026637
18.75960 0.328426588590
18.76540 0.328039866530
18.77120 0.327653377507
18.77700 0.327267082926
18.78280 0.326881359804
18.78860 0.326496234125
18.79440 0.326111301611
18.80020 0.325726543074
18.80600 0.325341440896
18.81180 0.324956532794
18.81760 0.324571818768
18.82340 0.324189964937
18.82920 0.323810181222
18.83500 0.323430584112
18.84080 0.323052226742
18.84660 0.322680630918
18.85240 0.322309209126
18.85820 0.321937961364
18.86400 0.321580578937
18.86980 0.321229503916
18.87560 0.320878570124
18.88140 0.320533433989
18.88720 0.320206192336
18.89300 0.319879053096
18.89880 0.319552016271
18.90460 0.319256302786
18.91040 0.318968777651
18.91620 0.318681289509
18.92200 0.318407906878
18.92780 0.318161245719
18.93360 0.317914553581
18.93940 0.317667830464
18.94520 0.317458216799
18.95100 0.317252791923
18.95680 0.317047266820
18.96260 0.316857825312
18.96840 0.316688158318
18.97420 0.316518330595
18.98000 0.316348342145
18.98580 0.316205287373
18.99160 0.316062026315
18.99740 0.315918558971
19.00320 0.315875100196
19.00900 0.315912957122
19.01480 0.315950733324
19.02060 0.315987925865
19.02640 0.316020680516
19.03220 0.316053357387
19.03800 0.316085956479
19.04380 0.316102500031
19.04960 0.316110568691
19.05540 0.316118574355
19.06120 0.316120115375
19.06700 0.316097065072
19.07280 0.316073970548
19.07860 0.316050831802
19.08440 0.315980270255
19.09020 0.315894622846
19.09600 0.315808969157
19.10180 0.315702442287
19.10760 0.315549565034
19.11340 0.315396722386
19.11920 0.315243914343
19.12500 0.315009812648
19.13080 0.314762786512
19.13660 0.314515852417
19.14240 0.314227920647
19.14820 0.313881913262
19.15400 0.313536058428
19.15980 0.313190356145
19.16560 0.312714056345
19.17140 0.312233320646
19.17720 0.311752820120
19.18300 0.311196977958
19.18880 0.310570900305
19.19460 0.309945147052
19.20040 0.309307170508
19.20620 0.308500183967
19.21200 0.307693633034
19.21780 0.306887517709
19.22360 0.305953654142
19.22940 0.304941994023
19.23520 0.303930895897
19.24100 0.302878101899
19.24680 0.301623120162
19.25260 0.300368850547
19.25840 0.299115293055
19.26420 0.297669502392
19.27000 0.296151061753
19.27580 0.294633496647
19.28160 0.293037639179
19.28740 0.291234953904
19.29320 0.289433320327
19.29900 0.287632738450
19.30480 0.285588597059
19.31060 0.283494712698
19.31640 0.281402061699
19.32220 0.279196334855
19.32800 0.276804917800
19.33380 0.274414919497
19.33960 0.272026339944
19.34540 0.269363594671
19.35120 0.266682030512
19.35700 0.264002067420
19.36280 0.261181300338
19.36860 0.258209692302
19.37440 0.255239867189
19.38020 0.252262415657
19.38600 0.249023372528
19.39180 0.245786280704
19.39760 0.242551140186
19.40340 0.239160672243
19.40920 0.235661266796
19.41500 0.232163978419
19.42080 0.228640705706
19.42660 0.224943987955
19.43240 0.221249513268
19.43820 0.217557281642
19.44400 0.213737306308
19.44980 0.209861178583
19.45560 0.205987410623
19.46140 0.202096689949
19.46720 0.198147663458
19.47300 0.194201046317
19.47880 0.190256838527
19.48460 0.186266713315
19.49040 0.182266424369
19.49620 0.178268582584
19.50200 0.174323767941
19.50780 0.170474580435
19.51360 0.166623494574
19.51940 0.162770510358
19.52520 0.158972445290
19.53100 0.155179067025
19.53680 0.151383821296
19.54260 0.147648060999
19.54840 0.143985992770
19.55420 0.140322123740
19.56000 0.136656453910
19.56580 0.133135381515
19.57160 0.129612579558
19.57740 0.126088048039
19.58320 0.122665653435
19.58900 0.119325991803
19.59480 0.115984692150
19.60060 0.112662392641
19.60640 0.109517372696
19.61220 0.106370811666
19.61800 0.103222709552
19.62380 0.100220759130
19.62960 0.097295091225
19.63540 0.094367991664
19.64120 0.091487734600
19.64700 0.088791165099
19.65280 0.086093277122
19.65860 0.083394070668
19.66440 0.080884159814
19.67020 0.078433687484
19.67600 0.075982018440
19.68180 0.073602246833
19.68760 0.071383784678
19.69340 0.069164239864
19.69920 0.066943612391
19.70500 0.064927794284
19.71080 0.062943943817
19.71660 0.060959126235
19.72240 0.059056667334
19.72820 0.057271355011
19.73400 0.055485172922
19.73980 0.053698121065
19.74560 0.052094333444
19.75140 0.050496342789
19.75720 0.048897574473
19.76300 0.047376416323
19.76880 0.045927697970
19.77460 0.044478275096
19.78040 0.043037445654
19.78620 0.041721468785
19.79200 0.040404852415
19.79780 0.039087596544
19.80360 0.037844901817
19.80940 0.036647570841
19.81520 0.035449658737
19.82100 0.034270407571
19.82680 0.033182968689
19.83260 0.032095002412
19.83840 0.031006508739
19.84420 0.030001949445
19.85000 0.029029087033
19.85580 0.028055753328
19.86160 0.027114174007
19.86740 0.026256751616
19.87320 0.025398914080
19.87900 0.024540661397
19.88480 0.023778524359
19.89060 0.023036133938
19.89640 0.022293384379
19.90220 0.021596273566
19.90800 0.020974113010
19.91380 0.020351651505
19.91960 0.019728889051
19.92540 0.019193921494
19.93120 0.018665222402
19.93700 0.018136267719
19.94280 0.017652189478
19.94860 0.017216244597
19.95440 0.016780088909
19.96020 0.016345737714
19.96600 0.015967618544
19.97180 0.015589316545
19.97760 0.015210831716
19.98340 0.014863042137
19.98920 0.014536885998
19.99500 0.014210572219
20.00080 0.013887383720
20.00660 0.013584569935
20.01240 0.013281623312
20.01820 0.012978543851
20.02400 0.012685383558
20.02980 0.012396619173
20.03560 0.012107728278
20.04140 0.011821258938
20.04720 0.011542674140
20.05300 0.011263967410
20.05880 0.010985138748
20.06460 0.010711472360
20.07040 0.010439065116
20.07620 0.010166538829
20.08200 0.009897226638
20.08780 0.009634131184
20.09360 0.009370920872
20.09940 0.009107595704
20.10520 0.008850689972
20.11100 0.008594426332
20.11680 0.008338050988
20.12260 0.008089972013
20.12840 0.007852135607
20.13420 0.007614195609
20.14000 0.007376152020
20.14580 0.007162487199
20.15160 0.006948729366
20.15740 0.006734878520
20.16320 0.006532552439
20.16900 0.006339579845
20.17480 0.006146523331
20.18060 0.005955576083
20.18640 0.005783557572
20.19220 0.005611464290
20.19800 0.005439296238
20.20380 0.005279393538
20.20960 0.005125917590
20.21540 0.004972374993
20.22120 0.004822867072
20.22700 0.004689019407
20.23280 0.004555113635
20.23860 0.004421149754
20.24440 0.004296094236
20.25020 0.004173838053
20.25600 0.004051528849
20.26180 0.003930317988
20.26760 0.003811613733
20.27340 0.003692858055
20.27920 0.003574050953
20.28500 0.003461289842
20.29080 0.003349455724
20.29660 0.003237573223
20.30240 0.003128757317
20.30820 0.003024308199
20.31400 0.002919813931
20.31980 0.002815274514
20.32560 0.002718250367
20.33140 0.002621454390
20.33720 0.002524616624
20.34300 0.002431566216
20.34880 0.002342050299
20.35460 0.002252495769
20.36040 0.002163581145
20.36620 0.002083790170
20.37200 0.002003964799
20.37780 0.001924105033
20.38360 0.001854529200
20.38940 0.001791230388
20.39520 0.001727904300
20.40100 0.001667052334
20.40680 0.001618183445
20.41260 0.001569293490
20.41840 0.001520382469
20.42420 0.001480580673
20.43000 0.001444240665
20.43580 0.001407884984
20.44160 0.001374935255
20.44740 0.001350955000
20.45320 0.001326964374
20.45900 0.001302963375
20.46480 0.001286991621
20.47060 0.001272688207
20.47640 0.001258378569
20.48220 0.001247771073
20.48800 0.001243228466
20.49380 0.001238683808
20.49960 0.001234137098
20.50540 0.001229494023
20.51120 0.001224848912
20.51700 0.001220209002
20.52280 0.001216168272
20.52860 0.001212767900
20.53440 0.001209371046
20.54020 0.001205886447
20.54600 0.001199851951
20.55180 0.001193824601
20.55760 0.001187804397
20.56340 0.001180147906
20.56920 0.001171341548
20.57500 0.001162546191
20.58080 0.001153054714
20.58660 0.001139158755
20.59240 0.001125280861
20.59820 0.001111421030
20.60400 0.001093149550
20.60980 0.001072910259
20.61560 0.001052697907
20.62140 0.001031418383
20.62720 0.001006731061
20.63300 0.000982076952
20.63880 0.000957456057
20.64460 0.000929420920
20.65040 0.000900525070
20.65620 0.000871668469
20.66200 0.000841836763
20.66780 0.000810119786
20.67360 0.000778446150
20.67940 0.000746815855
20.68520 0.000713451238
20.69100 0.000679927469
20.69680 0.000646449808
20.70260 0.000612702779
20.70840 0.000578614294
20.71420 0.000544572900
20.72000 0.000510578597
20.72580 0.000479198542
20.73160 0.000447861979
20.73740 0.000416568908
20.74320 0.000386606466
20.74900 0.000357730772
20.75480 0.000328895292
20.76060 0.000300633652
20.76640 0.000277032984
20.77220 0.000253465267
20.77800 0.000229930503
20.78380 0.000209560812
20.78960 0.000190866973
20.79540 0.000172199336
20.80120 0.000154807936
20.80700 0.000142229382
20.81280 0.000129668482
20.81860 0.000117125237
20.82440 0.000109436357
20.83020 0.000103296130
20.83600 0.000097164512
20.84180 0.000092191901
20.84760 0.000089780886
20.85340 0.000087373209
20.85920 0.000084968869
20.86500 0.000085934220
20.87080 0.000087436341
20.87660 0.000088936231
20.88240 0.000090898904
20.88820 0.000093516980
20.89400 0.000096131219
20.89980 0.000098741621
20.90560 0.000101104400
20.91140 0.000103454991
20.91720 0.000105802106
20.92300 0.000107750481
20.92880 0.000109327298
20.93460 0.000110901737
20.94040 0.000112298337
20.94620 0.000111325770
20.95200 0.000110354487
20.95780 0.000109384489
20.96360 0.000107218576
20.96940 0.000104324583
20.97520 0.000101434658
20.98100 0.000098251896
20.98680 0.000093649519
20.99260 0.000089053701
20.99840 0.000084464443
21.00420 0.000078697145
21.01000 0.000072472373
21.01580 0.000066239363
21.02160 0.000059644912
21.02740 0.000052113992
21.03320 0.000044573155
21.03900 0.000037022402
21.04480 0.000035738881
21.05060 0.000035762244
21.05640 0.000035785607
21.06220 0.000035808970
21.06800 0.000035832333
21.07380 0.000035855696
21.07960 0.000035879059
21.08540 0.000035902422
21.09120 0.000035925785
21.09700 0.000035949148
21.10280 0.000035972511
21.10860 0.000035995874
21.11440 0.000036019237
21.12020 0.000036042600
21.12600 0.000036065963
21.13180 0.000036089326
21.13760 0.000036112689
21.14340 0.000036136052
21.14920 0.000036159415
21.15500 0.000036182778
21.16080 0.000036206141
21.16660 0.000036229504
21.17240 0.000036252867
21.17820 0.000036276230
21.18400 0.000036299593
21.18980 0.000036322956
21.19560 0.000036346319
21.20140 0.000036369682
21.20720 0.000036393045
21.21300 0.000036416408
21.21880 0.000036439771
21.22460 0.000036463134
21.23040 0.000036486497
21.23620 0.000036509860
21.24200 0.000036533223
21.24780 0.000036556586
21.25360 0.000036579949
21.25940 0.000036603312
21.26520 0.000036626675
21.27100 0.000036650038
21.27680 0.000036673401
21.28260 0.000036696764
21.28840 0.000036720127
21.29420 0.000036743490
21.30000 0.000036766853
21.30580 0.000036790216
21.31160 0.000036813579
21.31740 0.000036836942
21.32320 0.000036860305
21.32900 0.000036883668
21.33480 0.000036907031
21.34060 0.000036930394
21.34640 0.000036953757
21.35220 0.000036977120
21.35800 0.000037000483
21.36380 0.000037023846
21.36960 0.000037047209
21.37540 0.000037070572
21.38120 0.000037093935
21.38700 0.000037117297
21.39280 0.000037140660
21.39860 0.000037164023
21.40440 0.000037187386
21.41020 0.000037210749
21.41600 0.000037234112
21.42180 0.000037257475
21.42760 0.000037280838
21.43340 0.000037304201
21.43920 0.000037327564
21.44500 0.000037350927
21.45080 0.000037374290
21.45660 0.000037397653
21.46240 0.000037421016
21.46820 0.000037444379
21.47400 0.000037467742
21.47980 0.000037491105
21.48560 0.000037514468
21.49140 0.000037537831
21.49720 0.000037561194
21.50300 0.000037572056
21.50880 0.000037571251
21.51460 0.000037570445
21.52040 0.000037569640
21.52620 0.000037568834
21.53200 0.000037568028
21.53780 0.000037567223
21.54360 0.000037566417
21.54940 0.000037565611
21.55520 0.000037564806
21.56100 0.000037564000
21.56680 0.000037563195
21.57260 0.000037562389
21.57840 0.000037561583
21.58420 0.000037560778
21.59000 0.000037559972
21.59580 0.000037559166
21.60160 0.000037558361
21.60740 0.000037557555
21.61320 0.000037556750
21.61900 0.000037555944
21.62480 0.000037555138
21.63060 0.000037554333
21.63640 0.000037553527
21.64220 0.000037552721
21.64800 0.000037551916
21.65380 0.000037551110
21.65960 0.000037550305
21.66540 0.000037549499
21.67120 0.000037548693
21.67700 0.000037547888
21.68280 0.000037547082
21.68860 0.000037546277
21.69440 0.000037545471
21.70020 0.000037544665
21.70600 0.000037543860
21.71180 0.000037543054
21.71760 0.000037542248
21.72340 0.000037541443
21.72920 0.000037540637
21.73500 0.000037539832
21.74080 0.000037539026
21.74660 0.000037538220
21.75240 0.000037537415
21.75820 0.000037536609
21.76400 0.000037535803
21.76980 0.000037534998
21.77560 0.000037534192
21.78140 0.000037533387
21.78720 0.000037532581
21.79300 0.000037531775
21.79880 0.000037530970
21.80460 0.000037530164
21.81040 0.000037529358
21.81620 0.000037528553
21.82200 0.000037527747
21.82780 0.000037526942
21.83360 0.000037526136
21.83940 0.000037525330
21.84520 0.000037524525
21.85100 0.000037523719
21.85680 0.000037522914
21.86260 0.000037522108
21.86840 0.000037521302
21.87420 0.000037520497
21.88000 0.000037519691
21.88580 0.000037518885
21.89160 0.000037518080
21.89740 0.000037517274
21.90320 0.000037516469
21.90900 0.000037515663
21.91480 0.000037514857
21.92060 0.000037514052
21.92640 0.000037513246
21.93220 0.000037512440
21.93800 0.000037511635
21.94380 0.000037510829
21.94960 0.000037510024
21.95540 0.000037509218
21.96120 0.000037508412
21.96700 0.000037507607
21.97280 0.000037506801
21.97860 0.000037505995
21.98440 0.000037505190
21.99020 0.000037504384
21.99600 0.000037503579
22.00180 0.000037499773
22.00760 0.000037489300
22.01340 0.000037478827
22.01920 0.000037468354
22.02500 0.000037457881
22.03080 0.000037447407
22.03660 0.000037436934
22.04240 0.000037426461
22.04820 0.000037415988
22.05400 0.000037405515
22.05980 0.000037395042
22.06560 0.000037384569
22.07140 0.000037374096
22.07720 0.000037363623
22.08300 0.000037353150
22.08880 0.000037342677
22.09460 0.000037332204
22.10040 0.000037321731
22.10620 0.000037311258
22.11200 0.000037300785
22.11780 0.000037290311
22.12360 0.000037279838
22.12940 0.000037269365
22.13520 0.000037258892
22.14100 0.000037248419
22.14680 0.000037237946
22.15260 0.000037227473
22.15840 0.000037217000
22.16420 0.000037206527
22.17000 0.000037196054
22.17580 0.000037185581
22.18160 0.000037175108
22.18740 0.000037164635
22.19320 0.000037154162
22.19900 0.000037143689
22.20480 0.000037133215
22.21060 0.000037122742
22.21640 0.000037112269
22.22220 0.000037101796
22.22800 0.000037091323
22.23380 0.000037080850
22.23960 0.000037070377
22.24540 0.000037059904
22.25120 0.000037049431
22.25700 0.000037038958
22.26280 0.000037028485
22.26860 0.000037018012
22.27440 0.000037007539
22.28020 0.000036997066
22.28600 0.000036986593
22.29180 0.000036976119
22.29760 0.000036965646
22.30340 0.000036955173
22.30920 0.000036944700
22.31500 0.000036934227
22.32080 0.000036923754
22.32660 0.000036913281
22.33240 0.000036902808
22.33820 0.000036892335
22.34400 0.000036881862
22.34980 0.000036871389
22.35560 0.000036860916
22.36140 0.000036850443
22.36720 0.000036839970
22.37300 0.000036829497
22.37880 0.000036819023
22.38460 0.000036808550
22.39040 0.000036798077
22.39620 0.000036787604
22.40200 0.000036777131
22.40780 0.000036766658
22.41360 0.000036756185
22.41940 0.000036745712
22.42520 0.000036735239
22.43100 0.000036724766
22.43680 0.000036714293
22.44260 0.000036703820
22.44840 0.000036693347
22.45420 0.000036682874
22.46000 0.000036672401
22.46580 0.000036661927
22.47160 0.000036651454
22.47740 0.000036640981
22.48320 0.000036630508
22.48900 0.000036620035
22.49480 0.000036609562
22.50060 0.000036599089
22.50640 0.000036588616
22.51220 0.000036578143
22.51800 0.000036567670
22.52380 0.000036557197
22.52960 0.000036546724
22.53540 0.000036536251
22.54120 0.000036525778
22.54700 0.000036515305
22.55280 0.000036504831
22.55860 0.000036494358
22.56440 0.000036483885
22.57020 0.000036473412
22.57600 0.000036462939
22.58180 0.000036452466
22.58760 0.000036441993
22.59340 0.000036431520
22.59920 0.000036421047
22.60500 0.000036410574
22.61080 0.000036400101
22.61660 0.000036389628
22.62240 0.000036379155
22.62820 0.000036368682
22.63400 0.000036358209
22.63980 0.000036347735
22.64560 0.000036337262
22.65140 0.000036326789
22.65720 0.000036316316
22.66300 0.000036305843
22.66880 0.000036295370
22.67460 0.000036284897
22.68040 0.000036274424
22.68620 0.000036263951
22.69200 0.000036253478
22.69780 0.000036243005
22.70360 0.000036232532
22.70940 0.000036222059
22.71520 0.000036211586
22.72100 0.000036201113
22.72680 0.000036190639
22.73260 0.000036180166
22.73840 0.000036169693
22.74420 0.000036159220
22.75000 0.000036148747
22.75580 0.000036138274
22.76160 0.000036127801
22.76740 0.000036117328
22.77320 0.000036106855
22.77900 0.000036096382
22.78480 0.000036085909
22.79060 0.000036075436
22.79640 0.000036064963
22.80220 0.000036054490
22.80800 0.000036044017
22.81380 0.000036033543
22.81960 0.000036023070
22.82540 0.000036012597
22.83120 0.000036002124
22.83700 0.000035991651
22.84280 0.000035981178
22.84860 0.000035970705
22.85440 0.000035960232
22.86020 0.000035949759
22.86600 0.000035939286
22.87180 0.000035928813
22.87760 0.000035918340
22.88340 0.000035907867
22.88920 0.000035897394
22.89500 0.000035886921
22.90080 0.000035876447
22.90660 0.000035865974
22.91240 0.000035855501
22.91820 0.000035845028
22.92400 0.000035834555
22.92980 0.000035824082
22.93560 0.000035813609
22.94140 0.000035803136
22.94720 0.000035792663
22.95300 0.000035782190
22.95880 0.000035771717
22.96460 0.000035761244
22.97040 0.000035750771
22.97620 0.000035740298
22.98200 0.000035729825
22.98780 0.000035719351
22.99360 0.000035708878
22.99940 0.000035698405
23.00520 0.000035679265
23.01100 0.000035659124
23.01680 0.000035638984
23.02260 0.000035618843
23.02840 0.000035598703
23.03420 0.000035578562
23.04000 0.000035558422
23.04580 0.000035538281
23.05160 0.000035518141
23.05740 0.000035498000
23.06320 0.000035477860
23.06900 0.000035457719
23.07480 0.000035437579
23.08060 0.000035417438
23.08640 0.000035397298
23.09220 0.000035377157
23.09800 0.000035357017
23.10380 0.000035336876
23.10960 0.000035316736
23.11540 0.000035296595
23.12120 0.000035276455
23.12700 0.000035256314
23.13280 0.000035236174
23.13860 0.000035216033
23.14440 0.000035195893
23.15020 0.000035175752
23.15600 0.000035155612
23.16180 0.000035135471
23.16760 0.000035115331
23.17340 0.000035095190
23.17920 0.000035075050
23.18500 0.000035054909
23.19080 0.000035034769
23.19660 0.000035014628
23.20240 0.000034994487
23.20820 0.000034974347
23.21400 0.000034954206
23.21980 0.000034934066
23.22560 0.000034913925
23.23140 0.000034893785
23.23720 0.000034873644
23.24300 0.000034853504
23.24880 0.000034833363
23.25460 0.000034813223
23.26040 0.000034793082
23.26620 0.000034772942
23.27200 0.000034752801
23.27780 0.000034732661
23.28360 0.000034712520
23.28940 0.000034692380
23.29520 0.000034672239
23.30100 0.000034652099
23.30680 0.000034631958
23.31260 0.000034611818
23.31840 0.000034591677
23.32420 0.000034571537
23.33000 0.000034551396
23.33580 0.000034531256
23.34160 0.000034511115
23.34740 0.000034490975
23.35320 0.000034470834
23.35900 0.000034450694
23.36480 0.000034430553
23.37060 0.000034410413
23.37640 0.000034390272
23.38220 0.000034370132
23.38800 0.000034349991
23.39380 0.000034329851
23.39960 0.000034309710
23.40540 0.000034289570
23.41120 0.000034269429
23.41700 0.000034249289
23.42280 0.000034229148
23.42860 0.000034209008
23.43440 0.000034188867
23.44020 0.000034168726
23.44600 0.000034148586
23.45180 0.000034128445
23.45760 0.000034108305
23.46340 0.000034088164
23.46920 0.000034068024
23.47500 0.000034047883
23.48080 0.000034027743
23.48660 0.000034007602
23.49240 0.000033987462
23.49820 0.000033967321
23.50400 0.000033960515
23.50980 0.000033959710
23.51560 0.000033958904
23.52140 0.000033958098
23.52720 0.000033957293
23.53300 0.000033956487
23.53880 0.000033955682
23.54460 0.000033954876
23.55040 0.000033954070
23.55620 0.000033953265
23.56200 0.000033952459
23.56780 0.000033951653
23.57360 0.000033950848
23.57940 0.000033950042
23.58520 0.000033949237
23.59100 0.000033948431
23.59680 0.000033947625
23.60260 0.000033946820
23.60840 0.000033946014
23.61420 0.000033945208
23.62000 0.000033944403
23.62580 0.000033943597
23.63160 0.000033942792
23.63740 0.000033941986
23.64320 0.000033941180
23.64900 0.000033940375
23.65480 0.000033939569
23.66060 0.000033938764
23.66640 0.000033937958
23.67220 0.000033937152
23.67800 0.000033936347
23.68380 0.000033935541
23.68960 0.000033934735
23.69540 0.000033933930
23.70120 0.000033933124
23.70700 0.000033932319
23.71280 0.000033931513
23.71860 0.000033930707
23.72440 0.000033929902
23.73020 0.000033929096
23.73600 0.000033928290
23.74180 0.000033927485
23.74760 0.000033926679
23.75340 0.000033925874
23.75920 0.000033925068
23.76500 0.000033924262
23.77080 0.000033923457
23.77660 0.000033922651
23.78240 0.000033921845
23.78820 0.000033921040
23.79400 0.000033920234
23.79980 0.000033919429
23.80560 0.000033918623
23.81140 0.000033917817
23.81720 0.000033917012
23.82300 0.000033916206
23.82880 0.000033915401
23.83460 0.000033914595
23.84040 0.000033913789
23.84620 0.000033912984
23.85200 0.000033912178
23.85780 0.000033911372
23.86360 0.000033910567
23.86940 0.000033909761
23.87520 0.000033908956
23.88100 0.000033908150
23.88680 0.000033907344
23.89260 0.000033906539
23.89840 0.000033905733
23.90420 0.000033904927
23.91000 0.000033904122
23.91580 0.000033903316
23.92160 0.000033902511
23.92740 0.000033901705
23.93320 0.000033900899
23.93900 0.000033900094
23.94480 0.000033899288
23.95060 0.000033898482
23.95640 0.000033897677
23.96220 0.000033896871
23.96800 0.000033896066
23.97380 0.000033895260
23.97960 0.000033894454
23.98540 0.000033893649
23.99120 0.000033892843
23.99700 0.000033892038
24.00280 0.000033877231
24.00860 0.000033847423
24.01440 0.000033817615
24.02020 0.000033787807
24.02600 0.000033757999
24.03180 0.000033728191
24.03760 0.000033698383
24.04340 0.000033668575
24.04920 0.000033638767
24.05500 0.000033608959
24.06080 0.000033579151
24.06660 0.000033549343
24.07240 0.000033519535
24.07820 0.000033489727
24.08400 0.000033459919
24.08980 0.000033430111
24.09560 0.000033400303
24.10140 0.000033370495
24.10720 0.000033340688
24.11300 0.000033310880
24.11880 0.000033281072
24.12460 0.000033251264
24.13040 0.000033221456
24.13620 0.000033191648
24.14200 0.000033161840
24.14780 0.000033132032
24.15360 0.000033102224
24.15940 0.000033072416
24.16520 0.000033042608
24.17100 0.000033012800
24.17680 0.000032982992
24.18260 0.000032953184
24.18840 0.000032923376
24.19420 0.000032893568
24.20000 0.000032863760
24.20580 0.000032833952
24.21160 0.000032804144
24.21740 0.000032774336
24.22320 0.000032744528
24.22900 0.000032714720
24.23480 0.000032684912
24.24060 0.000032655104
24.24640 0.000032625297
24.25220 0.000032595489
24.25800 0.000032565681
24.26380 0.000032535873
24.26960 0.000032506065
24.27540 0.000032476257
24.28120 0.000032446449
24.28700 0.000032416641
24.29280 0.000032386833
24.29860 0.000032357025
24.30440 0.000032327217
24.31020 0.000032297409
24.31600 0.000032267601
24.32180 0.000032237793
24.32760 0.000032207985
24.33340 0.000032178177
24.33920 0.000032148369
24.34500 0.000032118561
24.35080 0.000032088753
24.35660 0.000032058945
24.36240 0.000032029137
24.36820 0.000031999329
24.37400 0.000031969521
24.37980 0.000031939713
24.38560 0.000031909906
24.39140 0.000031880098
24.39720 0.000031850290
24.40300 0.000031820482
24.40880 0.000031790674
24.41460 0.000031760866
24.42040 0.000031731058
24.42620 0.000031701250
24.43200 0.000031671442
24.43780 0.000031641634
24.44360 0.000031611826
24.44940 0.000031582018
24.45520 0.000031552210
24.46100 0.000031522402
24.46680 0.000031492594
24.47260 0.000031462786
24.47840 0.000031432978
24.48420 0.000031403170
24.49000 0.000031373362
24.49580 0.000031343554
24.50160 0.000031313969
24.50740 0.000031284966
24.51320 0.000031255964
24.51900 0.000031226962
24.52480 0.000031197959
24.53060 0.000031168957
24.53640 0.000031139955
24.54220 0.000031110952
24.54800 0.000031081950
24.55380 0.000031052948
24.55960 0.000031023945
24.56540 0.000030994943
24.57120 0.000030965941
24.57700 0.000030936938
24.58280 0.000030907936
24.58860 0.000030878934
24.59440 0.000030849931
24.60020 0.000030820929
24.60600 0.000030791927
24.61180 0.000030762924
24.61760 0.000030733922
24.62340 0.000030704920
24.62920 0.000030675917
24.63500 0.000030646915
24.64080 0.000030617912
24.64660 0.000030588910
24.65240 0.000030559908
24.65820 0.000030530905
24.66400 0.000030501903
24.66980 0.000030472901
24.67560 0.000030443898
24.68140 0.000030414896
24.68720 0.000030385894
24.69300 0.000030356891
24.69880 0.000030327889
24.70460 0.000030298887
24.71040 0.000030269884
24.71620 0.000030240882
24.72200 0.000030211880
24.72780 0.000030182877
24.73360 0.000030153875
24.73940 0.000030124873
24.74520 0.000030095870
24.75100 0.000030066868
24.75680 0.000030037866
24.76260 0.000030008863
24.76840 0.000029979861
24.77420 0.000029950859
24.78000 0.000029921856
24.78580 0.000029892854
24.79160 0.000029863852
24.79740 0.000029834849
24.80320 0.000029805847
24.80900 0.000029776845
24.81480 0.000029747842
24.82060 0.000029718840
24.82640 0.000029689838
24.83220 0.000029660835
24.83800 0.000029631833
24.84380 0.000029602831
24.84960 0.000029573828
24.85540 0.000029544826
24.86120 0.000029515824
24.86700 0.000029486821
24.87280 0.000029457819
24.87860 0.000029428817
24.88440 0.000029399814
24.89020 0.000029370812
24.89600 0.000029341810
24.90180 0.000029312807
24.90760 0.000029283805
24.91340 0.000029254803
24.91920 0.000029225800
24.92500 0.000029196798
24.93080 0.000029167796
24.93660 0.000029138793
24.94240 0.000029109791
24.94820 0.000029080789
24.95400 0.000029051786
24.95980 0.000029022784
24.96560 0.000028993782
24.97140 0.000028964779
24.97720 0.000028935777
24.98300 0.000028906775
24.98880 0.000028877772
24.99460 0.000028848770
25.00040 0.000028820101
25.00620 0.000028795932
25.01200 0.000028771764
25.01780 0.000028747595
25.02360 0.000028723426
25.02940 0.000028699258
25.03520 0.000028675089
25.04100 0.000028650921
25.04680 0.000028626752
25.05260 0.000028602583
25.05840 0.000028578415
25.06420 0.000028554246
25.07000 0.000028530078
25.07580 0.000028505909
25.08160 0.000028481740
25.08740 0.000028457572
25.09320 0.000028433403
25.09900 0.000028409234
25.10480 0.000028385066
25.11060 0.000028360897
25.11640 0.000028336729
25.12220 0.000028312560
25.12800 0.000028288391
25.13380 0.000028264223
25.13960 0.000028240054
25.14540 0.000028215886
25.15120 0.000028191717
25.15700 0.000028167548
25.16280 0.000028143380
25.16860 0.000028119211
25.17440 0.000028095042
25.18020 0.000028070874
25.18600 0.000028046705
25.19180 0.000028022537
25.19760 0.000027998368
25.20340 0.000027974199
25.20920 0.000027950031
25.21500 0.000027925862
25.22080 0.000027901694
25.22660 0.000027877525
25.23240 0.000027853356
25.23820 0.000027829188
25.24400 0.000027805019
25.24980 0.000027780850
25.25560 0.000027756682
25.26140 0.000027732513
25.26720 0.000027708345
25.27300 0.000027684176
25.27880 0.000027660007
25.28460 0.000027635839
25.29040 0.000027611670
25.29620 0.000027587502
25.30200 0.000027563333
25.30780 0.000027539164
25.31360 0.000027514996
25.31940 0.000027490827
25.32520 0.000027466658
25.33100 0.000027442490
25.33680 0.000027418321
25.34260 0.000027394153
25.34840 0.000027369984
25.35420 0.000027345815
25.36000 0.000027321647
25.36580 0.000027297478
25.37160 0.000027273310
25.37740 0.000027249141
25.38320 0.000027224972
25.38900 0.000027200804
25.39480 0.000027176635
25.40060 0.000027152466
25.40640 0.000027128298
25.41220 0.000027104129
25.41800 0.000027079961
25.42380 0.000027055792
25.42960 0.000027031623
25.43540 0.000027007455
25.44120 0.000026983286
25.44700 0.000026959118
25.45280 0.000026934949
25.45860 0.000026910780
25.46440 0.000026886612
25.47020 0.000026862443
25.47600 0.000026838274
25.48180 0.000026814106
25.48760 0.000026789937
25.49340 0.000026765769
25.49920 0.000026741600
25.50500 0.000026704930
25.51080 0.000026666261
25.51660 0.000026627591
25.52240 0.000026588921
25.52820 0.000026550251
25.53400 0.000026511581
25.53980 0.000026472912
25.54560 0.000026434242
25.55140 0.000026395572
25.55720 0.000026356902
25.56300 0.000026318233
25.56880 0.000026279563
25.57460 0.000026240893
25.58040 0.000026202223
25.58620 0.000026163553
25.59200 0.000026124884
25.59780 0.000026086214
25.60360 0.000026047544
25.60940 0.000026008874
25.61520 0.000025970205
25.62100 0.000025931535
25.62680 0.000025892865
25.63260 0.000025854195
25.63840 0.000025815525
25.64420 0.000025776856
25.65000 0.000025738186
25.65580 0.000025699516
25.66160 0.000025660846
25.66740 0.000025622176
25.67320 0.000025583507
25.67900 0.000025544837
25.68480 0.000025506167
25.69060 0.000025467497
25.69640 0.000025428828
25.70220 0.000025390158
25.70800 0.000025351488
25.71380 0.000025312818
25.71960 0.000025274148
25.72540 0.000025235479
25.73120 0.000025196809
25.73700 0.000025158139
25.74280 0.000025119469
25.74860 0.000025080799
25.75440 0.000025042130
25.76020 0.000025003460
25.76600 0.000024964790
25.77180 0.000024926120
25.77760 0.000024887451
25.78340 0.000024848781
25.78920 0.000024810111
25.79500 0.000024771441
25.80080 0.000024732771
25.80660 0.000024694102
25.81240 0.000024655432
25.81820 0.000024616762
25.82400 0.000024578092
25.82980 0.000024539423
25.83560 0.000024500753
25.84140 0.000024462083
25.84720 0.000024423413
25.85300 0.000024384743
25.85880 0.000024346074
25.86460 0.000024307404
25.87040 0.000024268734
25.87620 0.000024230064
25.88200 0.000024191394
25.88780 0.000024152725
25.89360 0.000024114055
25.89940 0.000024075385
25.90520 0.000024036715
25.91100 0.000023998046
25.91680 0.000023959376
25.92260 0.000023920706
25.92840 0.000023882036
25.93420 0.000023843366
25.94000 0.000023804697
25.94580 0.000023766027
25.95160 0.000023727357
25.95740 0.000023688687
25.96320 0.000023650017
25.96900 0.000023611348
25.97480 0.000023572678
25.98060 0.000023534008
25.98640 0.000023495338
25.99220 0.000023456669
25.99800 0.000023417999
26.00380 0.000023369828
26.00960 0.000023316657
26.01540 0.000023263486
26.02120 0.000023210315
26.02700 0.000023157144
26.03280 0.000023103973
26.03860 0.000023050803
26.04440 0.000022997632
26.05020 0.000022944461
26.05600 0.000022891290
26.06180 0.000022838119
26.06760 0.000022784948
26.07340 0.000022731777
26.07920 0.000022678606
26.08500 0.000022625435
26.09080 0.000022572264
26.09660 0.000022519093
26.10240 0.000022465922
26.10820 0.000022412751
26.11400 0.000022359580
26.11980 0.000022306409
26.12560 0.000022253238
26.13140 0.000022200067
26.13720 0.000022146896
26.14300 0.000022093725
26.14880 0.000022040554
26.15460 0.000021987383
26.16040 0.000021934213
26.16620 0.000021881042
26.17200 0.000021827871
26.17780 0.000021774700
26.18360 0.000021721529
26.18940 0.000021668358
26.19520 0.000021615187
26.20100 0.000021562016
26.20680 0.000021508845
26.21260 0.000021455674
26.21840 0.000021402503
26.22420 0.000021349332
26.23000 0.000021296161
26.23580 0.000021242990
26.24160 0.000021189819
26.24740 0.000021136648
26.25320 0.000021083477
26.25900 0.000021030306
26.26480 0.000020977135
26.27060 0.000020923964
26.27640 0.000020870793
26.28220 0.000020817623
26.28800 0.000020764452
26.29380 0.000020711281
26.29960 0.000020658110
26.30540 0.000020604939
26.31120 0.000020551768
26.31700 0.000020498597
26.32280 0.000020445426
26.32860 0.000020392255
26.33440 0.000020339084
26.34020 0.000020285913
26.34600 0.000020232742
26.35180 0.000020179571
26.35760 0.000020126400
26.36340 0.000020073229
26.36920 0.000020020058
26.37500 0.000019966887
26.38080 0.000019913716
26.38660 0.000019860545
26.39240 0.000019807374
26.39820 0.000019754203
26.40400 0.000019701033
26.40980 0.000019647862
26.41560 0.000019594691
26.42140 0.000019541520
26.42720 0.000019488349
26.43300 0.000019435178
26.43880 0.000019382007
26.44460 0.000019328836
26.45040 0.000019275665
26.45620 0.000019222494
26.46200 0.000019169323
26.46780 0.000019116152
26.47360 0.000019062981
26.47940 0.000019009810
26.48520 0.000018956639
26.49100 0.000018903468
26.49680 0.000018850297
26.50260 0.000018803988
26.50840 0.000018766124
26.51420 0.000018728260
26.52000 0.000018690395
26.52580 0.000018652531
26.53160 0.000018614667
26.53740 0.000018576803
26.54320 0.000018538939
26.54900 0.000018501075
26.55480 0.000018463211
26.56060 0.000018425346
26.56640 0.000018387482
26.57220 0.000018349618
26.57800 0.000018311754
26.58380 0.000018273890
26.58960 0.000018236026
26.59540 0.000018198161
26.60120 0.000018160297
26.60700 0.000018122433
26.61280 0.000018084569
26.61860 0.000018046705
26.62440 0.000018008841
26.63020 0.000017970976
26.63600 0.000017933112
26.64180 0.000017895248
26.64760 0.000017857384
26.65340 0.000017819520
26.65920 0.000017781656
26.66500 0.000017743791
26.67080 0.000017705927
26.67660 0.000017668063
26.68240 0.000017630199
26.68820 0.000017592335
26.69400 0.000017554471
26.69980 0.000017516606
26.70560 0.000017478742
26.71140 0.000017440878
26.71720 0.000017403014
26.72300 0.000017365150
26.72880 0.000017327286
26.73460 0.000017289421
26.74040 0.000017251557
26.74620 0.000017213693
26.75200 0.000017175829
26.75780 0.000017137965
26.76360 0.000017100101
26.76940 0.000017062236
26.77520 0.000017024372
26.78100 0.000016986508
26.78680 0.000016948644
26.79260 0.000016910780
26.79840 0.000016872916
26.80420 0.000016835051
26.81000 0.000016797187
26.81580 0.000016759323
26.82160 0.000016721459
26.82740 0.000016683595
26.83320 0.000016645731
26.83900 0.000016607867
26.84480 0.000016570002
26.85060 0.000016532138
26.85640 0.000016494274
26.86220 0.000016456410
26.86800 0.000016418546
26.87380 0.000016380682
26.87960 0.000016342817
26.88540 0.000016304953
26.89120 0.000016267089
26.89700 0.000016229225
26.90280 0.000016191361
26.90860 0.000016153497
26.91440 0.000016115632
26.92020 0.000016077768
26.92600 0.000016039904
26.93180 0.000016002040
26.93760 0.000015964176
26.94340 0.000015926312
26.94920 0.000015888447
26.95500 0.000015850583
26.96080 0.000015812719
26.96660 0.000015774855
26.97240 0.000015736991
26.97820 0.000015699127
26.98400 0.000015661262
26.98980 0.000015623398
26.99560 0.000015585534
27.00140 0.000015549809
27.00720 0.000015520807
27.01300 0.000015491804
27.01880 0.000015462802
27.02460 0.000015433800
27.03040 0.000015404797
27.03620 0.000015375795
27.04200 0.000015346793
27.04780 0.000015317790
27.05360 0.000015288788
27.05940 0.000015259786
27.06520 0.000015230783
27.07100 0.000015201781
27.07680 0.000015172779
27.08260 0.000015143776
27.08840 0.000015114774
27.09420 0.000015085772
27.10000 0.000015056769
27.10580 0.000015027767
27.11160 0.000014998765
27.11740 0.000014969762
27.12320 0.000014940760
27.12900 0.000014911758
27.13480 0.000014882755
27.14060 0.000014853753
27.14640 0.000014824751
27.15220 0.000014795748
27.15800 0.000014766746
27.16380 0.000014737744
27.16960 0.000014708741
27.17540 0.000014679739
27.18120 0.000014650737
27.18700 0.000014621734
27.19280 0.000014592732
27.19860 0.000014563730
27.20440 0.000014534727
27.21020 0.000014505725
27.21600 0.000014476722
27.22180 0.000014447720
27.22760 0.000014418718
27.23340 0.000014389715
27.23920 0.000014360713
27.24500 0.000014331711
27.25080 0.000014302708
27.25660 0.000014273706
27.26240 0.000014244704
27.26820 0.000014215701
27.27400 0.000014186699
27.27980 0.000014157697
27.28560 0.000014128694
27.29140 0.000014099692
27.29720 0.000014070690
27.30300 0.000014041687
27.30880 0.000014012685
27.31460 0.000013983683
27.32040 0.000013954680
27.32620 0.000013925678
27.33200 0.000013896676
27.33780 0.000013867673
27.34360 0.000013838671
27.34940 0.000013809669
27.35520 0.000013780666
27.36100 0.000013751664
27.36680 0.000013722662
27.37260 0.000013693659
27.37840 0.000013664657
27.38420 0.000013635655
27.39000 0.000013606652
27.39580 0.000013577650
27.40160 0.000013548648
27.40740 0.000013519645
27.41320 0.000013490643
27.41900 0.000013461641
27.42480 0.000013432638
27.43060 0.000013403636
27.43640 0.000013374634
27.44220 0.000013345631
27.44800 0.000013316629
27.45380 0.000013287627
27.45960 0.000013258624
27.46540 0.000013229622
27.47120 0.000013200620
27.47700 0.000013171617
27.48280 0.000013142615
27.48860 0.000013113613
27.49440 0.000013084610
27.50020 0.000013054802
27.50600 0.000013002437
27.51180 0.000012950072
27.51760 0.000012897706
27.52340 0.000012845341
27.52920 0.000012792976
27.53500 0.000012740610
27.54080 0.000012688245
27.54660 0.000012635880
27.55240 0.000012583514
27.55820 0.000012531149
27.56400 0.000012478784
27.56980 0.000012426418
27.57560 0.000012374053
27.58140 0.000012321688
27.58720 0.000012269322
27.59300 0.000012216957
27.59880 0.000012164592
27.60460 0.000012112226
27.61040 0.000012059861
27.61620 0.000012007496
27.62200 0.000011955130
27.62780 0.000011902765
27.63360 0.000011850400
27.63940 0.000011798034
27.64520 0.000011745669
27.65100 0.000011693304
27.65680 0.000011640938
27.66260 0.000011588573
27.66840 0.000011536208
27.67420 0.000011483842
27.68000 0.000011431477
27.68580 0.000011379112
27.69160 0.000011326746
27.69740 0.000011274381
27.70320 0.000011222016
27.70900 0.000011169650
27.71480 0.000011117285
27.72060 0.000011064920
27.72640 0.000011012554
27.73220 0.000010960189
27.73800 0.000010907824
27.74380 0.000010855458
27.74960 0.000010803093
27.75540 0.000010750728
27.76120 0.000010698362
27.76700 0.000010645997
27.77280 0.000010593632
27.77860 0.000010541266
27.78440 0.000010488901
27.79020 0.000010436536
27.79600 0.000010384170
27.80180 0.000010331805
27.80760 0.000010279440
27.81340 0.000010227074
27.81920 0.000010174709
27.82500 0.000010122344
27.83080 0.000010069978
27.83660 0.000010017613
27.84240 0.000009965248
27.84820 0.000009912882
27.85400 0.000009860517
27.85980 0.000009808152
27.86560 0.000009755786
27.87140 0.000009703421
27.87720 0.000009651056
27.88300 0.000009598690
27.88880 0.000009546325
27.89460 0.000009493960
27.90040 0.000009441594
27.90620 0.000009389229
27.91200 0.000009336864
27.91780 0.000009284498
27.92360 0.000009232133
27.92940 0.000009179768
27.93520 0.000009127402
27.94100 0.000009075037
27.94680 0.000009022672
27.95260 0.000008970306
27.95840 0.000008917941
27.96420 0.000008865576
27.97000 0.000008813210
27.97580 0.000008760845
27.98160 0.000008708480
27.98740 0.000008656114
27.99320 0.000008603749
27.99900 0.000008551384
28.00480 0.000008511019
28.01060 0.000008473155
28.01640 0.000008435291
28.02220 0.000008397427
28.02800 0.000008359563
28.03380 0.000008321699
28.03960 0.000008283834
28.04540 0.000008245970
28.05120 0.000008208106
28.05700 0.000008170242
28.06280 0.000008132378
28.06860 0.000008094514
28.07440 0.000008056649
28.08020 0.000008018785
28.08600 0.000007980921
28.09180 0.000007943057
28.09760 0.000007905193
28.10340 0.000007867329
28.10920 0.000007829464
28.11500 0.000007791600
28.12080 0.000007753736
28.12660 0.000007715872
28.13240 0.000007678008
28.13820 0.000007640144
28.14400 0.000007602279
28.14980 0.000007564415
28.15560 0.000007526551
28.16140 0.000007488687
28.16720 0.000007450823
28.17300 0.000007412959
28.17880 0.000007375094
28.18460 0.000007337230
28.19040 0.000007299366
28.19620 0.000007261502
28.20200 0.000007223638
28.20780 0.000007185774
28.21360 0.000007147910
28.21940 0.000007110045
28.22520 0.000007072181
28.23100 0.000007034317
28.23680 0.000006996453
28.24260 0.000006958589
28.24840 0.000006920725
28.25420 0.000006882860
28.26000 0.000006844996
28.26580 0.000006807132
28.27160 0.000006769268
28.27740 0.000006731404
28.28320 0.000006693540
28.28900 0.000006655675
28.29480 0.000006617811
28.30060 0.000006579947
28.30640 0.000006542083
28.31220 0.000006504219
28.31800 0.000006466355
28.32380 0.000006428490
28.32960 0.000006390626
28.33540 0.000006352762
28.34120 0.000006314898
28.34700 0.000006277034
28.35280 0.000006239170
28.35860 0.000006201305
28.36440 0.000006163441
28.37020 0.000006125577
28.37600 0.000006087713
28.38180 0.000006049849
28.38760 0.000006011985
28.39340 0.000005974120
28.39920 0.000005936256
28.40500 0.000005898392
28.41080 0.000005860528
28.41660 0.000005822664
28.42240 0.000005784800
28.42820 0.000005746935
28.43400 0.000005709071
28.43980 0.000005671207
28.44560 0.000005633343
28.45140 0.000005595479
28.45720 0.000005557615
28.46300 0.000005519750
28.46880 0.000005481886
28.47460 0.000005444022
28.48040 0.000005406158
28.48620 0.000005368294
28.49200 0.000005330430
28.49780 0.000005292566
28.50360 0.000005272703
28.50940 0.000005263841
28.51520 0.000005254979
28.52100 0.000005246117
28.52680 0.000005237255
28.53260 0.000005228394
28.53840 0.000005219532
28.54420 0.000005210670
28.55000 0.000005201808
28.55580 0.000005192946
28.56160 0.000005184085
28.56740 0.000005175223
28.57320 0.000005166361
28.57900 0.000005157499
28.58480 0.000005148637
28.59060 0.000005139775
28.59640 0.000005130914
28.60220 0.000005122052
28.60800 0.000005113190
28.61380 0.000005104328
28.61960 0.000005095466
28.62540 0.000005086604
28.63120 0.000005077743
28.63700 0.000005068881
28.64280 0.000005060019
28.64860 0.000005051157
28.65440 0.000005042295
28.66020 0.000005033434
28.66600 0.000005024572
28.67180 0.000005015710
28.67760 0.000005006848
28.68340 0.000004997986
28.68920 0.000004989124
28.69500 0.000004980263
28.70080 0.000004971401
28.70660 0.000004962539
28.71240 0.000004953677
28.71820 0.000004944815
28.72400 0.000004935953
28.72980 0.000004927092
28.73560 0.000004918230
28.74140 0.000004909368
28.74720 0.000004900506
28.75300 0.000004891644
28.75880 0.000004882782
28.76460 0.000004873921
28.77040 0.000004865059
28.77620 0.000004856197
28.78200 0.000004847335
28.78780 0.000004838473
28.79360 0.000004829612
28.79940 0.000004820750
28.80520 0.000004811888
28.81100 0.000004803026
28.81680 0.000004794164
28.82260 0.000004785302
28.82840 0.000004776441
28.83420 0.000004767579
28.84000 0.000004758717
28.84580 0.000004749855
28.85160 0.000004740993
28.85740 0.000004732131
28.86320 0.000004723270
28.86900 0.000004714408
28.87480 0.000004705546
28.88060 0.000004696684
28.88640 0.000004687822
28.89220 0.000004678960
28.89800 0.000004670099
28.90380 0.000004661237
28.90960 0.000004652375
28.91540 0.000004643513
28.92120 0.000004634651
28.92700 0.000004625790
28.93280 0.000004616928
28.93860 0.000004608066
28.94440 0.000004599204
28.95020 0.000004590342
28.95600 0.000004581480
28.96180 0.000004572619
28.96760 0.000004563757
28.97340 0.000004554895
28.97920 0.000004546033
28.98500 0.000004537171
28.99080 0.000004528309
28.99660 0.000004519448
29.00240 0.000004504252
29.00820 0.000004480083
29.01400 0.000004455915
29.01980 0.000004431746
29.02560 0.000004407578
29.03140 0.000004383409
29.03720 0.000004359240
29.04300 0.000004335072
29.04880 0.000004310903
29.05460 0.000004286734
29.06040 0.000004262566
29.06620 0.000004238397
29.07200 0.000004214229
29.07780 0.000004190060
29.08360 0.000004165891
29.08940 0.000004141723
29.09520 0.000004117554
29.10100 0.000004093386
29.10680 0.000004069217
29.11260 0.000004045048
29.11840 0.000004020880
29.12420 0.000003996711
29.13000 0.000003972542
29.13580 0.000003948374
29.14160 0.000003924205
29.14740 0.000003900037
29.15320 0.000003875868
29.15900 0.000003851699
29.16480 0.000003827531
29.17060 0.000003803362
29.17640 0.000003779194
29.18220 0.000003755025
29.18800 0.000003730856
29.19380 0.000003706688
29.19960 0.000003682519
29.20540 0.000003658350
29.21120 0.000003634182
29.21700 0.000003610013
29.22280 0.000003585845
29.22860 0.000003561676
29.23440 0.000003537507
29.24020 0.000003513339
29.24600 0.000003489170
29.25180 0.000003465002
29.25760 0.000003440833
29.26340 0.000003416664
29.26920 0.000003392496
29.27500 0.000003368327
29.28080 0.000003344158
29.28660 0.000003319990
29.29240 0.000003295821
29.29820 0.000003271653
29.30400 0.000003247484
29.30980 0.000003223315
29.31560 0.000003199147
29.32140 0.000003174978
29.32720 0.000003150810
29.33300 0.000003126641
29.33880 0.000003102472
29.34460 0.000003078304
29.35040 0.000003054135
29.35620 0.000003029966
29.36200 0.000003005798
29.36780 0.000002981629
29.37360 0.000002957461
29.37940 0.000002933292
29.38520 0.000002909123
29.39100 0.000002884955
29.39680 0.000002860786
29.40260 0.000002836618
29.40840 0.000002812449
29.41420 0.000002788280
29.42000 0.000002764112
29.42580 0.000002739943
29.43160 0.000002715774
29.43740 0.000002691606
29.44320 0.000002667437
29.44900 0.000002643269
29.45480 0.000002619100
29.46060 0.000002594931
29.46640 0.000002570763
29.47220 0.000002546594
29.47800 0.000002522426
29.48380 0.000002498257
29.48960 0.000002474088
29.49540 0.000002449920
29.50120 0.000002427918
29.50700 0.000002414222
29.51280 0.000002400527
29.51860 0.000002386831
29.52440 0.000002373136
29.53020 0.000002359440
29.53600 0.000002345745
29.54180 0.000002332049
29.54760 0.000002318354
29.55340 0.000002304658
29.55920 0.000002290962
29.56500 0.000002277267
29.57080 0.000002263571
29.57660 0.000002249876
29.58240 0.000002236180
29.58820 0.000002222485
29.59400 0.000002208789
29.59980 0.000002195094
29.60560 0.000002181398
29.61140 0.000002167703
29.61720 0.000002154007
29.62300 0.000002140311
29.62880 0.000002126616
29.63460 0.000002112920
29.64040 0.000002099225
29.64620 0.000002085529
29.65200 0.000002071834
29.65780 0.000002058138
29.66360 0.000002044443
29.66940 0.000002030747
29.67520 0.000002017051
29.68100 0.000002003356
29.68680 0.000001989660
29.69260 0.000001975965
29.69840 0.000001962269
29.70420 0.000001948574
29.71000 0.000001934878
29.71580 0.000001921183
29.72160 0.000001907487
29.72740 0.000001893792
29.73320 0.000001880096
29.73900 0.000001866400
29.74480 0.000001852705
29.75060 0.000001839009
29.75640 0.000001825314
29.76220 0.000001811618
29.76800 0.000001797923
29.77380 0.000001784227
29.77960 0.000001770532
29.78540 0.000001756836
29.79120 0.000001743141
29.79700 0.000001729445
29.80280 0.000001715749
29.80860 0.000001702054
29.81440 0.000001688358
29.82020 0.000001674663
29.82600 0.000001660967
29.83180 0.000001647272
29.83760 0.000001633576
29.84340 0.000001619881
29.84920 0.000001606185
29.85500 0.000001592489
29.86080 0.000001578794
29.86660 0.000001565098
29.87240 0.000001551403
29.87820 0.000001537707
29.88400 0.000001524012
29.88980 0.000001510316
29.89560 0.000001496621
29.90140 0.000001482925
29.90720 0.000001469230
29.91300 0.000001455534
29.91880 0.000001441838
29.92460 0.000001428143
29.93040 0.000001414447
29.93620 0.000001400752
29.94200 0.000001387056
29.94780 0.000001373361
29.95360 0.000001359665
29.95940 0.000001345970
29.96520 0.000001332274
29.97100 0.000001318579
29.97680 0.000001304883
29.98260 0.000001291187
29.98840 0.000001277492
29.99420 0.000001263796
