# wave[microns] transmission[e/photon]
1.00000 0.000030488569
1.00580 0.000030433787
1.01160 0.000030379004
1.01740 0.000030324222
1.02320 0.000030269440
1.02900 0.000030214658
1.03480 0.000030159876
1.04060 0.000030105093
1.04640 0.000030050311
1.05220 0.000029995529
1.05800 0.000029940747
1.06380 0.000029885965
1.06960 0.000029831182
1.07540 0.000029776400
1.08120 0.000029721618
1.08700 0.000029666836
1.09280 0.000029612054
1.09860 0.000029557271
1.10440 0.000029502489
1.11020 0.000029447707
1.11600 0.000029392925
1.12180 0.000029338143
1.12760 0.000029283360
1.13340 0.000029228578
1.13920 0.000029173796
1.14500 0.000029119014
1.15080 0.000029064232
1.15660 0.000029009449
1.16240 0.000028954667
1.16820 0.000028899885
1.17400 0.000028845103
1.17980 0.000028790321
1.18560 0.000028735539
1.19140 0.000028680756
1.19720 0.000028625974
1.20300 0.000028571192
1.20880 0.000028516410
1.21460 0.000028461628
1.22040 0.000028406845
1.22620 0.000028352063
1.23200 0.000028297281
1.23780 0.000028242499
1.24360 0.000028187717
1.24940 0.000028132934
1.25520 0.000028078152
1.26100 0.000028023370
1.26680 0.000027968588
1.27260 0.000027913806
1.27840 0.000027859023
1.28420 0.000027804241
1.29000 0.000027749459
1.29580 0.000027694677
1.30160 0.000027639895
1.30740 0.000027585112
1.31320 0.000027530330
1.31900 0.000027475548
1.32480 0.000027420766
1.33060 0.000027365984
1.33640 0.000027311201
1.34220 0.000027256419
1.34800 0.000027201637
1.35380 0.000027146855
1.35960 0.000027092073
1.36540 0.000027037291
1.37120 0.000026982508
1.37700 0.000026927726
1.38280 0.000026872944
1.38860 0.000026818162
1.39440 0.000026763380
1.40020 0.000026708597
1.40600 0.000026653815
1.41180 0.000026599033
1.41760 0.000026544251
1.42340 0.000026489469
1.42920 0.000026434686
1.43500 0.000026379904
1.44080 0.000026325122
1.44660 0.000026270340
1.45240 0.000026215558
1.45820 0.000026160775
1.46400 0.000026105993
1.46980 0.000026051211
1.47560 0.000025996429
1.48140 0.000025941647
1.48720 0.000025886864
1.49300 0.000025832082
1.49880 0.000025777300
1.50460 0.000025722518
1.51040 0.000025667736
1.51620 0.000025612953
1.52200 0.000025558171
1.52780 0.000025503389
1.53360 0.000025448607
1.53940 0.000025393825
1.54520 0.000025339043
1.55100 0.000025284260
1.55680 0.000025229478
1.56260 0.000025174696
1.56840 0.000025119914
1.57420 0.000025065132
1.58000 0.000025010349
1.58580 0.000024955567
1.59160 0.000024900785
1.59740 0.000024846003
1.60320 0.000024791221
1.60900 0.000024736438
1.61480 0.000024681656
1.62060 0.000024626874
1.62640 0.000024572092
1.63220 0.000024517310
1.63800 0.000024462527
1.64380 0.000024407745
1.64960 0.000024352963
1.65540 0.000024298181
1.66120 0.000024243399
1.66700 0.000024188616
1.67280 0.000024133834
1.67860 0.000024079052
1.68440 0.000024024270
1.69020 0.000023969488
1.69600 0.000023914705
1.70180 0.000023859923
1.70760 0.000023805141
1.71340 0.000023750359
1.71920 0.000023695577
1.72500 0.000023640795
1.73080 0.000023586012
1.73660 0.000023531230
1.74240 0.000023476448
1.74820 0.000023421666
1.75400 0.000023366884
1.75980 0.000023312101
1.76560 0.000023257319
1.77140 0.000023202537
1.77720 0.000023147755
1.78300 0.000023092973
1.78880 0.000023038190
1.79460 0.000022983408
1.80040 0.000022928626
1.80620 0.000022873844
1.81200 0.000022819062
1.81780 0.000022764279
1.82360 0.000022709497
1.82940 0.000022654715
1.83520 0.000022599933
1.84100 0.000022545151
1.84680 0.000022490368
1.85260 0.000022435586
1.85840 0.000022380804
1.86420 0.000022326022
1.87000 0.000022271240
1.87580 0.000022216457
1.88160 0.000022161675
1.88740 0.000022106893
1.89320 0.000022052111
1.89900 0.000021997329
1.90480 0.000021942547
1.91060 0.000021887764
1.91640 0.000021832982
1.92220 0.000021778200
1.92800 0.000021723418
1.93380 0.000021668636
1.93960 0.000021613853
1.94540 0.000021559071
1.95120 0.000021504289
1.95700 0.000021449507
1.96280 0.000021394725
1.96860 0.000021339942
1.97440 0.000021285160
1.98020 0.000021230378
1.98600 0.000021175596
1.99180 0.000021120814
1.99760 0.000021066031
2.00340 0.000021011249
2.00920 0.000020956467
2.01500 0.000020901685
2.02080 0.000020846903
2.02660 0.000020792120
2.03240 0.000020737338
2.03820 0.000020682556
2.04400 0.000020627774
2.04980 0.000020572992
2.05560 0.000020518209
2.06140 0.000020463427
2.06720 0.000020408645
2.07300 0.000020353863
2.07880 0.000020299081
2.08460 0.000020244299
2.09040 0.000020189516
2.09620 0.000020134734
2.10200 0.000020079952
2.10780 0.000020025170
2.11360 0.000019970388
2.11940 0.000019915605
2.12520 0.000019860823
2.13100 0.000019806041
2.13680 0.000019751259
2.14260 0.000019696477
2.14840 0.000019641694
2.15420 0.000019586912
2.16000 0.000019532130
2.16580 0.000019477348
2.17160 0.000019422566
2.17740 0.000019367783
2.18320 0.000019313001
2.18900 0.000019258219
2.19480 0.000019203437
2.20060 0.000019148655
2.20640 0.000019093872
2.21220 0.000019039090
2.21800 0.000018984308
2.22380 0.000018929526
2.22960 0.000018874744
2.23540 0.000018819961
2.24120 0.000018765179
2.24700 0.000018710397
2.25280 0.000018655615
2.25860 0.000018600833
2.26440 0.000018546051
2.27020 0.000018491268
2.27600 0.000018436486
2.28180 0.000018381704
2.28760 0.000018326922
2.29340 0.000018272140
2.29920 0.000018217357
2.30500 0.000018162575
2.31080 0.000018107793
2.31660 0.000018053011
2.32240 0.000017998229
2.32820 0.000017943446
2.33400 0.000017888664
2.33980 0.000017833882
2.34560 0.000017779100
2.35140 0.000017724318
2.35720 0.000017669535
2.36300 0.000017614753
2.36880 0.000017559971
2.37460 0.000017505189
2.38040 0.000017450407
2.38620 0.000017395624
2.39200 0.000017340842
2.39780 0.000017286060
2.40360 0.000017231278
2.40940 0.000017176496
2.41520 0.000017121713
2.42100 0.000017066931
2.42680 0.000017012149
2.43260 0.000016957367
2.43840 0.000016902585
2.44420 0.000016847803
2.45000 0.000016793020
2.45580 0.000016738238
2.46160 0.000016683456
2.46740 0.000016628674
2.47320 0.000016573892
2.47900 0.000016519109
2.48480 0.000016464327
2.49060 0.000016409545
2.49640 0.000016354763
2.50220 0.000016316787
2.50800 0.000016306314
2.51380 0.000016295841
2.51960 0.000016285368
2.52540 0.000016274895
2.53120 0.000016264422
2.53700 0.000016253949
2.54280 0.000016243476
2.54860 0.000016233003
2.55440 0.000016222530
2.56020 0.000016212057
2.56600 0.000016201584
2.57180 0.000016191111
2.57760 0.000016180638
2.58340 0.000016170165
2.58920 0.000016159691
2.59500 0.000016149218
2.60080 0.000016138745
2.60660 0.000016128272
2.61240 0.000016117799
2.61820 0.000016107326
2.62400 0.000016096853
2.62980 0.000016086380
2.63560 0.000016075907
2.64140 0.000016065434
2.64720 0.000016054961
2.65300 0.000016044488
2.65880 0.000016034015
2.66460 0.000016023542
2.67040 0.000016013069
2.67620 0.000016002595
2.68200 0.000015992122
2.68780 0.000015981649
2.69360 0.000015971176
2.69940 0.000015960703
2.70520 0.000015950230
2.71100 0.000015939757
2.71680 0.000015929284
2.72260 0.000015918811
2.72840 0.000015908338
2.73420 0.000015897865
2.74000 0.000015887392
2.74580 0.000015876919
2.75160 0.000015866446
2.75740 0.000015855973
2.76320 0.000015845499
2.76900 0.000015835026
2.77480 0.000015824553
2.78060 0.000015814080
2.78640 0.000015803607
2.79220 0.000015793134
2.79800 0.000015782661
2.80380 0.000015772188
2.80960 0.000015761715
2.81540 0.000015751242
2.82120 0.000015740769
2.82700 0.000015730296
2.83280 0.000015719823
2.83860 0.000015709350
2.84440 0.000015698877
2.85020 0.000015688403
2.85600 0.000015677930
2.86180 0.000015667457
2.86760 0.000015656984
2.87340 0.000015646511
2.87920 0.000015636038
2.88500 0.000015625565
2.89080 0.000015615092
2.89660 0.000015604619
2.90240 0.000015594146
2.90820 0.000015583673
2.91400 0.000015573200
2.91980 0.000015562727
2.92560 0.000015552254
2.93140 0.000015541781
2.93720 0.000015531308
2.94300 0.000015520834
2.94880 0.000015510361
2.95460 0.000015499888
2.96040 0.000015489415
2.96620 0.000015478942
2.97200 0.000015468469
2.97780 0.000015457996
2.98360 0.000015447523
2.98940 0.000015437050
2.99520 0.000015426577
3.00100 0.000015421382
3.00680 0.000015441522
3.01260 0.000015461663
3.01840 0.000015481804
3.02420 0.000015501944
3.03000 0.000015522085
3.03580 0.000015542225
3.04160 0.000015562366
3.04740 0.000015582506
3.05320 0.000015602647
3.05900 0.000015622787
3.06480 0.000015642928
3.07060 0.000015663068
3.07640 0.000015683209
3.08220 0.000015703349
3.08800 0.000015723490
3.09380 0.000015743630
3.09960 0.000015763771
3.10540 0.000015783911
3.11120 0.000015804052
3.11700 0.000015824192
3.12280 0.000015844333
3.12860 0.000015864473
3.13440 0.000015884614
3.14020 0.000015904754
3.14600 0.000015924895
3.15180 0.000015945035
3.15760 0.000015965176
3.16340 0.000015985316
3.16920 0.000016005457
3.17500 0.000016025597
3.18080 0.000016045738
3.18660 0.000016065878
3.19240 0.000016086019
3.19820 0.000016106159
3.20400 0.000016126300
3.20980 0.000016146440
3.21560 0.000016166581
3.22140 0.000016186721
3.22720 0.000016206862
3.23300 0.000016227002
3.23880 0.000016247143
3.24460 0.000016267283
3.25040 0.000016287424
3.25620 0.000016307565
3.26200 0.000016327705
3.26780 0.000016347846
3.27360 0.000016367986
3.27940 0.000016388127
3.28520 0.000016408267
3.29100 0.000016428408
3.29680 0.000016448548
3.30260 0.000016468689
3.30840 0.000016488829
3.31420 0.000016508970
3.32000 0.000016529110
3.32580 0.000016549251
3.33160 0.000016569391
3.33740 0.000016589532
3.34320 0.000016609672
3.34900 0.000016629813
3.35480 0.000016649953
3.36060 0.000016670094
3.36640 0.000016690234
3.37220 0.000016710375
3.37800 0.000016730515
3.38380 0.000016750656
3.38960 0.000016770796
3.39540 0.000016790937
3.40120 0.000016811077
3.40700 0.000016831218
3.41280 0.000016851358
3.41860 0.000016871499
3.42440 0.000016891639
3.43020 0.000016911780
3.43600 0.000016931920
3.44180 0.000016952061
3.44760 0.000016972201
3.45340 0.000016992342
3.45920 0.000017012482
3.46500 0.000017032623
3.47080 0.000017052763
3.47660 0.000017072904
3.48240 0.000017093044
3.48820 0.000017113185
3.49400 0.000017133326
3.49980 0.000017153466
3.50560 0.000017217943
3.51140 0.000017284004
3.51720 0.000017350065
3.52300 0.000017416126
3.52880 0.000017482187
3.53460 0.000017548248
3.54040 0.000017614309
3.54620 0.000017680370
3.55200 0.000017746431
3.55780 0.000017812491
3.56360 0.000017878552
3.56940 0.000017944613
3.57520 0.000018010674
3.58100 0.000018076735
3.58680 0.000018142796
3.59260 0.000018208857
3.59840 0.000018274918
3.60420 0.000018340978
3.61000 0.000018407039
3.61580 0.000018473100
3.62160 0.000018539161
3.62740 0.000018605222
3.63320 0.000018671283
3.63900 0.000018737344
3.64480 0.000018803405
3.65060 0.000018869465
3.65640 0.000018935526
3.66220 0.000019001587
3.66800 0.000019067648
3.67380 0.000019133709
3.67960 0.000019199770
3.68540 0.000019265831
3.69120 0.000019331892
3.69700 0.000019397953
3.70280 0.000019464013
3.70860 0.000019530074
3.71440 0.000019596135
3.72020 0.000019662196
3.72600 0.000019728257
3.73180 0.000019794318
3.73760 0.000019860379
3.74340 0.000019926440
3.74920 0.000019992500
3.75500 0.000020058561
3.76080 0.000020124622
3.76660 0.000020190683
3.77240 0.000020256744
3.77820 0.000020322805
3.78400 0.000020388866
3.78980 0.000020454927
3.79560 0.000020520987
3.80140 0.000020587048
3.80720 0.000020653109
3.81300 0.000020719170
3.81880 0.000020785231
3.82460 0.000020851292
3.83040 0.000020917353
3.83620 0.000020983414
3.84200 0.000021049475
3.84780 0.000021115535
3.85360 0.000021181596
3.85940 0.000021247657
3.86520 0.000021313718
3.87100 0.000021379779
3.87680 0.000021445840
3.88260 0.000021511901
3.88840 0.000021577962
3.89420 0.000021644022
3.90000 0.000021710083
3.90580 0.000021776144
3.91160 0.000021842205
3.91740 0.000021908266
3.92320 0.000021974327
3.92900 0.000022040388
3.93480 0.000022106449
3.94060 0.000022172509
3.94640 0.000022238570
3.95220 0.000022304631
3.95800 0.000022370692
3.96380 0.000022436753
3.96960 0.000022502814
3.97540 0.000022568875
3.98120 0.000022634936
3.98700 0.000022700997
3.99280 0.000022767057
3.99860 0.000022833118
4.00440 0.000022886956
4.01020 0.000022936904
4.01600 0.000022986853
4.02180 0.000023036801
4.02760 0.000023086750
4.03340 0.000023136698
4.03920 0.000023186647
4.04500 0.000023236595
4.05080 0.000023286544
4.05660 0.000023336492
4.06240 0.000023386441
4.06820 0.000023436389
4.07400 0.000023486338
4.07980 0.000023536286
4.08560 0.000023586235
4.09140 0.000023636183
4.09720 0.000023686132
4.10300 0.000023736080
4.10880 0.000023786028
4.11460 0.000023835977
4.12040 0.000023885925
4.12620 0.000023935874
4.13200 0.000023985822
4.13780 0.000024035771
4.14360 0.000024085719
4.14940 0.000024135668
4.15520 0.000024185616
4.16100 0.000024235565
4.16680 0.000024285513
4.17260 0.000024335462
4.17840 0.000024385410
4.18420 0.000024435359
4.19000 0.000024485307
4.19580 0.000024535256
4.20160 0.000024585204
4.20740 0.000024635152
4.21320 0.000024685101
4.21900 0.000024735049
4.22480 0.000024784998
4.23060 0.000024834946
4.23640 0.000024884895
4.24220 0.000024934843
4.24800 0.000024984792
4.25380 0.000025034740
4.25960 0.000025084689
4.26540 0.000025134637
4.27120 0.000025184586
4.27700 0.000025234534
4.28280 0.000025284483
4.28860 0.000025334431
4.29440 0.000025384380
4.30020 0.000025434328
4.30600 0.000025484276
4.31180 0.000025534225
4.31760 0.000025584173
4.32340 0.000025634122
4.32920 0.000025684070
4.33500 0.000025734019
4.34080 0.000025783967
4.34660 0.000025833916
4.35240 0.000025883864
4.35820 0.000025933813
4.36400 0.000025983761
4.36980 0.000026033710
4.37560 0.000026083658
4.38140 0.000026133607
4.38720 0.000026183555
4.39300 0.000026233504
4.39880 0.000026283452
4.40460 0.000026333400
4.41040 0.000026383349
4.41620 0.000026433297
4.42200 0.000026483246
4.42780 0.000026533194
4.43360 0.000026583143
4.43940 0.000026633091
4.44520 0.000026683040
4.45100 0.000026732988
4.45680 0.000026782937
4.46260 0.000026832885
4.46840 0.000026882834
4.47420 0.000026932782
4.48000 0.000026982731
4.48580 0.000027032679
4.49160 0.000027082628
4.49740 0.000027132576
4.50320 0.000027176746
4.50900 0.000027216222
4.51480 0.000027255697
4.52060 0.000027295172
4.52640 0.000027334648
4.53220 0.000027374123
4.53800 0.000027413599
4.54380 0.000027453074
4.54960 0.000027492549
4.55540 0.000027532025
4.56120 0.000027571500
4.56700 0.000027610976
4.57280 0.000027650451
4.57860 0.000027689926
4.58440 0.000027729402
4.59020 0.000027768877
4.59600 0.000027808353
4.60180 0.000027847828
4.60760 0.000027887303
4.61340 0.000027926779
4.61920 0.000027966254
4.62500 0.000028005730
4.63080 0.000028045205
4.63660 0.000028084681
4.64240 0.000028124156
4.64820 0.000028163631
4.65400 0.000028203107
4.65980 0.000028242582
4.66560 0.000028282058
4.67140 0.000028321533
4.67720 0.000028361008
4.68300 0.000028400484
4.68880 0.000028439959
4.69460 0.000028479435
4.70040 0.000028518910
4.70620 0.000028558385
4.71200 0.000028597861
4.71780 0.000028637336
4.72360 0.000028676812
4.72940 0.000028716287
4.73520 0.000028755762
4.74100 0.000028795238
4.74680 0.000028834713
4.75260 0.000028874189
4.75840 0.000028913664
4.76420 0.000028953139
4.77000 0.000028992615
4.77580 0.000029032090
4.78160 0.000029071566
4.78740 0.000029111041
4.79320 0.000029150516
4.79900 0.000029189992
4.80480 0.000029229467
4.81060 0.000029268943
4.81640 0.000029308418
4.82220 0.000029347893
4.82800 0.000029387369
4.83380 0.000029426844
4.83960 0.000029466320
4.84540 0.000029505795
4.85120 0.000029545270
4.85700 0.000029584746
4.86280 0.000029624221
4.86860 0.000029663697
4.87440 0.000029703172
4.88020 0.000029742647
4.88600 0.000029782123
4.89180 0.000029821598
4.89760 0.000029861074
4.90340 0.000029900549
4.90920 0.000029940025
4.91500 0.000029979500
4.92080 0.000030018975
4.92660 0.000030058451
4.93240 0.000030097926
4.93820 0.000030137402
4.94400 0.000030176877
4.94980 0.000030216352
4.95560 0.000030255828
4.96140 0.000030295303
4.96720 0.000030334779
4.97300 0.000030374254
4.97880 0.000030413729
4.98460 0.000030453205
4.99040 0.000030492680
4.99620 0.000030532156
5.00200 0.000030577743
5.00780 0.000030634942
5.01360 0.000030692141
5.01940 0.000030749340
5.02520 0.000030806539
5.03100 0.000030863738
5.03680 0.000030920937
5.04260 0.000030978136
5.04840 0.000031035335
5.05420 0.000031092534
5.06000 0.000031149733
5.06580 0.000031206932
5.07160 0.000031264131
5.07740 0.000031321330
5.08320 0.000031378529
5.08900 0.000031435728
5.09480 0.000031492927
5.10060 0.000031550127
5.10640 0.000031607326
5.11220 0.000031664525
5.11800 0.000031721724
5.12380 0.000031778923
5.12960 0.000031836122
5.13540 0.000031893321
5.14120 0.000031950520
5.14700 0.000032007719
5.15280 0.000032064918
5.15860 0.000032122117
5.16440 0.000032179316
5.17020 0.000032236515
5.17600 0.000032293714
5.18180 0.000032350913
5.18760 0.000032408112
5.19340 0.000032465311
5.19920 0.000032522510
5.20500 0.000032579710
5.21080 0.000032636909
5.21660 0.000032694108
5.22240 0.000032751307
5.22820 0.000032808506
5.23400 0.000032865705
5.23980 0.000032922904
5.24560 0.000032980103
5.25140 0.000033037302
5.25720 0.000033094501
5.26300 0.000033151700
5.26880 0.000033208899
5.27460 0.000033266098
5.28040 0.000033323297
5.28620 0.000033380496
5.29200 0.000033437695
5.29780 0.000033494894
5.30360 0.000033552093
5.30940 0.000033609293
5.31520 0.000033666492
5.32100 0.000033723691
5.32680 0.000033780890
5.33260 0.000033838089
5.33840 0.000033895288
5.34420 0.000033952487
5.35000 0.000034009686
5.35580 0.000034066885
5.36160 0.000034124084
5.36740 0.000034181283
5.37320 0.000034238482
5.37900 0.000034295681
5.38480 0.000034352880
5.39060 0.000034410079
5.39640 0.000034467278
5.40220 0.000034524477
5.40800 0.000034581676
5.41380 0.000034638875
5.41960 0.000034696075
5.42540 0.000034753274
5.43120 0.000034810473
5.43700 0.000034867672
5.44280 0.000034924871
5.44860 0.000034982070
5.45440 0.000035039269
5.46020 0.000035096468
5.46600 0.000035153667
5.47180 0.000035210866
5.47760 0.000035268065
5.48340 0.000035325264
5.48920 0.000035382463
5.49500 0.000035439662
5.50080 0.000035495861
5.50660 0.000035545810
5.51240 0.000035595758
5.51820 0.000035645707
5.52400 0.000035695655
5.52980 0.000035745604
5.53560 0.000035795552
5.54140 0.000035845501
5.54720 0.000035895449
5.55300 0.000035945397
5.55880 0.000035995346
5.56460 0.000036045294
5.57040 0.000036095243
5.57620 0.000036145191
5.58200 0.000036195140
5.58780 0.000036245088
5.59360 0.000036295037
5.59940 0.000036344985
5.60520 0.000036394934
5.61100 0.000036444882
5.61680 0.000036494831
5.62260 0.000036544779
5.62840 0.000036594728
5.63420 0.000036644676
5.64000 0.000036694625
5.64580 0.000036744573
5.65160 0.000036794521
5.65740 0.000036844470
5.66320 0.000036894418
5.66900 0.000036944367
5.67480 0.000036994315
5.68060 0.000037044264
5.68640 0.000037094212
5.69220 0.000037144161
5.69800 0.000037194109
5.70380 0.000037244058
5.70960 0.000037294006
5.71540 0.000037343955
5.72120 0.000037393903
5.72700 0.000037443852
5.73280 0.000037493800
5.73860 0.000037543749
5.74440 0.000037593697
5.75020 0.000037643645
5.75600 0.000037693594
5.76180 0.000037743542
5.76760 0.000037793491
5.77340 0.000037843439
5.77920 0.000037893388
5.78500 0.000037943336
5.79080 0.000037993285
5.79660 0.000038043233
5.80240 0.000038093182
5.80820 0.000038143130
5.81400 0.000038193079
5.81980 0.000038243027
5.82560 0.000038292976
5.83140 0.000038342924
5.83720 0.000038392873
5.84300 0.000038442821
5.84880 0.000038492769
5.85460 0.000038542718
5.86040 0.000038592666
5.86620 0.000038642615
5.87200 0.000038692563
5.87780 0.000038742512
5.88360 0.000038792460
5.88940 0.000038842409
5.89520 0.000038892357
5.90100 0.000038942306
5.90680 0.000038992254
5.91260 0.000039042203
5.91840 0.000039092151
5.92420 0.000039142100
5.93000 0.000039192048
5.93580 0.000039241997
5.94160 0.000039291945
5.94740 0.000039341893
5.95320 0.000039391842
5.95900 0.000039441790
5.96480 0.000039491739
5.97060 0.000039541687
5.97640 0.000039591636
5.98220 0.000039641584
5.98800 0.000039691533
5.99380 0.000039741481
5.99960 0.000039791430
6.00540 0.000039822627
6.01120 0.000039852435
6.01700 0.000039882243
6.02280 0.000039912051
6.02860 0.000039941859
6.03440 0.000039971666
6.04020 0.000040001474
6.04600 0.000040031282
6.05180 0.000040061090
6.05760 0.000040090898
6.06340 0.000040120706
6.06920 0.000040150514
6.07500 0.000040180322
6.08080 0.000040210130
6.08660 0.000040239938
6.09240 0.000040269746
6.09820 0.000040299554
6.10400 0.000040329362
6.10980 0.000040359170
6.11560 0.000040388978
6.12140 0.000040418786
6.12720 0.000040448594
6.13300 0.000040478402
6.13880 0.000040508210
6.14460 0.000040538018
6.15040 0.000040567826
6.15620 0.000040597634
6.16200 0.000040627442
6.16780 0.000040657250
6.17360 0.000040687057
6.17940 0.000040716865
6.18520 0.000040746673
6.19100 0.000040776481
6.19680 0.000040806289
6.20260 0.000040836097
6.20840 0.000040865905
6.21420 0.000040895713
6.22000 0.000040925521
6.22580 0.000040955329
6.23160 0.000040985137
6.23740 0.000041014945
6.24320 0.000041044753
6.24900 0.000041074561
6.25480 0.000041104369
6.26060 0.000041134177
6.26640 0.000041163985
6.27220 0.000041193793
6.27800 0.000041223601
6.28380 0.000041253409
6.28960 0.000041283217
6.29540 0.000041313025
6.30120 0.000041342833
6.30700 0.000041372641
6.31280 0.000041402448
6.31860 0.000041432256
6.32440 0.000041462064
6.33020 0.000041491872
6.33600 0.000041521680
6.34180 0.000041551488
6.34760 0.000041581296
6.35340 0.000041611104
6.35920 0.000041640912
6.36500 0.000041670720
6.37080 0.000041700528
6.37660 0.000041730336
6.38240 0.000041760144
6.38820 0.000041789952
6.39400 0.000041819760
6.39980 0.000041849568
6.40560 0.000041879376
6.41140 0.000041909184
6.41720 0.000041938992
6.42300 0.000041968800
6.42880 0.000041998608
6.43460 0.000042028416
6.44040 0.000042058224
6.44620 0.000042088032
6.45200 0.000042117839
6.45780 0.000042147647
6.46360 0.000042177455
6.46940 0.000042207263
6.47520 0.000042237071
6.48100 0.000042266879
6.48680 0.000042296687
6.49260 0.000042326495
6.49840 0.000042356303
6.50420 0.000042344691
6.51000 0.000042317300
6.51580 0.000042289909
6.52160 0.000042262518
6.52740 0.000042235127
6.53320 0.000042207736
6.53900 0.000042180345
6.54480 0.000042152953
6.55060 0.000042125562
6.55640 0.000042098171
6.56220 0.000042070780
6.56800 0.000042043389
6.57380 0.000042015998
6.57960 0.000041988607
6.58540 0.000041961216
6.59120 0.000041933825
6.59700 0.000041906434
6.60280 0.000041879042
6.60860 0.000041851651
6.61440 0.000041824260
6.62020 0.000041796869
6.62600 0.000041769478
6.63180 0.000041742087
6.63760 0.000041714696
6.64340 0.000041687305
6.64920 0.000041659914
6.65500 0.000041632523
6.66080 0.000041605131
6.66660 0.000041577740
6.67240 0.000041550349
6.67820 0.000041522958
6.68400 0.000041495567
6.68980 0.000041468176
6.69560 0.000041440785
6.70140 0.000041413394
6.70720 0.000041386003
6.71300 0.000041358612
6.71880 0.000041331221
6.72460 0.000041303829
6.73040 0.000041276438
6.73620 0.000041249047
6.74200 0.000041221656
6.74780 0.000041194265
6.75360 0.000041166874
6.75940 0.000041139483
6.76520 0.000041112092
6.77100 0.000041084701
6.77680 0.000041057310
6.78260 0.000041029918
6.78840 0.000041002527
6.79420 0.000040975136
6.80000 0.000040947745
6.80580 0.000040920354
6.81160 0.000040892963
6.81740 0.000040865572
6.82320 0.000040838181
6.82900 0.000040810790
6.83480 0.000040783399
6.84060 0.000040756007
6.84640 0.000040728616
6.85220 0.000040701225
6.85800 0.000040673834
6.86380 0.000040646443
6.86960 0.000040619052
6.87540 0.000040591661
6.88120 0.000040564270
6.88700 0.000040536879
6.89280 0.000040509488
6.89860 0.000040482097
6.90440 0.000040454705
6.91020 0.000040427314
6.91600 0.000040399923
6.92180 0.000040372532
6.92760 0.000040345141
6.93340 0.000040317750
6.93920 0.000040290359
6.94500 0.000040262968
6.95080 0.000040235577
6.95660 0.000040208186
6.96240 0.000040180794
6.96820 0.000040153403
6.97400 0.000040126012
6.97980 0.000040098621
6.98560 0.000040071230
6.99140 0.000040043839
6.99720 0.000040016448
7.00300 0.000040011975
7.00880 0.000040028893
7.01460 0.000040045811
7.02040 0.000040062729
7.02620 0.000040079647
7.03200 0.000040096565
7.03780 0.000040113483
7.04360 0.000040130401
7.04940 0.000040147320
7.05520 0.000040164238
7.06100 0.000040181156
7.06680 0.000040198074
7.07260 0.000040214992
7.07840 0.000040231910
7.08420 0.000040248828
7.09000 0.000040265746
7.09580 0.000040282664
7.10160 0.000040299582
7.10740 0.000040316500
7.11320 0.000040333418
7.11900 0.000040350336
7.12480 0.000040367254
7.13060 0.000040384172
7.13640 0.000040401090
7.14220 0.000040418008
7.14800 0.000040434926
7.15380 0.000040451844
7.15960 0.000040468762
7.16540 0.000040485680
7.17120 0.000040502598
7.17700 0.000040519516
7.18280 0.000040536434
7.18860 0.000040553352
7.19440 0.000040570270
7.20020 0.000040587188
7.20600 0.000040604106
7.21180 0.000040621024
7.21760 0.000040637942
7.22340 0.000040654860
7.22920 0.000040671778
7.23500 0.000040688696
7.24080 0.000040705615
7.24660 0.000040722533
7.25240 0.000040739451
7.25820 0.000040756369
7.26400 0.000040773287
7.26980 0.000040790205
7.27560 0.000040807123
7.28140 0.000040824041
7.28720 0.000040840959
7.29300 0.000040857877
7.29880 0.000040874795
7.30460 0.000040891713
7.31040 0.000040908631
7.31620 0.000040925549
7.32200 0.000040942467
7.32780 0.000040959385
7.33360 0.000040976303
7.33940 0.000040993221
7.34520 0.000041010139
7.35100 0.000041027057
7.35680 0.000041043975
7.36260 0.000041060893
7.36840 0.000041077811
7.37420 0.000041094729
7.38000 0.000041111647
7.38580 0.000041128565
7.39160 0.000041145483
7.39740 0.000041162401
7.40320 0.000041179319
7.40900 0.000041196237
7.41480 0.000041213155
7.42060 0.000041230073
7.42640 0.000041246991
7.43220 0.000041263910
7.43800 0.000041280828
7.44380 0.000041297746
7.44960 0.000041314664
7.45540 0.000041331582
7.46120 0.000041348500
7.46700 0.000041365418
7.47280 0.000041382336
7.47860 0.000041399254
7.48440 0.000041416172
7.49020 0.000041433090
7.49600 0.000041450008
7.50180 0.000041469926
7.50760 0.000041496512
7.51340 0.000041523097
7.51920 0.000041549683
7.52500 0.000041576268
7.53080 0.000041602854
7.53660 0.000041629439
7.54240 0.000041656024
7.54820 0.000041682610
7.55400 0.000041709195
7.55980 0.000041735781
7.56560 0.000041762366
7.57140 0.000041788952
7.57720 0.000041815537
7.58300 0.000041842123
7.58880 0.000041868708
7.59460 0.000041895294
7.60040 0.000041921879
7.60620 0.000041948465
7.61200 0.000041975050
7.61780 0.000042001636
7.62360 0.000042028221
7.62940 0.000042054807
7.63520 0.000042081392
7.64100 0.000042107978
7.64680 0.000042134563
7.65260 0.000042161149
7.65840 0.000042187734
7.66420 0.000042214319
7.67000 0.000042240905
7.67580 0.000042267490
7.68160 0.000042294076
7.68740 0.000042320661
7.69320 0.000042347247
7.69900 0.000042373832
7.70480 0.000042400418
7.71060 0.000042427003
7.71640 0.000042453589
7.72220 0.000042480174
7.72800 0.000042506760
7.73380 0.000042533345
7.73960 0.000042559931
7.74540 0.000042586516
7.75120 0.000042613102
7.75700 0.000042639687
7.76280 0.000042666273
7.76860 0.000042692858
7.77440 0.000042719444
7.78020 0.000042746029
7.78600 0.000042772614
7.79180 0.000042799200
7.79760 0.000042825785
7.80340 0.000042852371
7.80920 0.000042878956
7.81500 0.000042905542
7.82080 0.000042932127
7.82660 0.000042958713
7.83240 0.000042985298
7.83820 0.000043011884
7.84400 0.000043038469
7.84980 0.000043065055
7.85560 0.000043091640
7.86140 0.000043118226
7.86720 0.000043144811
7.87300 0.000043171397
7.87880 0.000043197982
7.88460 0.000043224568
7.89040 0.000043251153
7.89620 0.000043277739
7.90200 0.000043304324
7.90780 0.000043330909
7.91360 0.000043357495
7.91940 0.000043384080
7.92520 0.000043410666
7.93100 0.000043437251
7.93680 0.000043463837
7.94260 0.000043490422
7.94840 0.000043517008
7.95420 0.000043543593
7.96000 0.000043570179
7.96580 0.000043596764
7.97160 0.000043623350
7.97740 0.000043649935
7.98320 0.000043676521
7.98900 0.000043703106
7.99480 0.000043729692
8.00060 0.000043755527
8.00640 0.000043774862
8.01220 0.000043794197
8.01800 0.000043813532
8.02380 0.000043832867
8.02960 0.000043852201
8.03540 0.000043871536
8.04120 0.000043890871
8.04700 0.000043910206
8.05280 0.000043929541
8.05860 0.000043948876
8.06440 0.000043968211
8.07020 0.000043987546
8.07600 0.000044006881
8.08180 0.000044026216
8.08760 0.000044045550
8.09340 0.000044064885
8.09920 0.000044084220
8.10500 0.000044103555
8.11080 0.000044122890
8.11660 0.000044142225
8.12240 0.000044161560
8.12820 0.000044180895
8.13400 0.000044200230
8.13980 0.000044219564
8.14560 0.000044238899
8.15140 0.000044258234
8.15720 0.000044277569
8.16300 0.000044296904
8.16880 0.000044316239
8.17460 0.000044335574
8.18040 0.000044354909
8.18620 0.000044374244
8.19200 0.000044393578
8.19780 0.000044412913
8.20360 0.000044432248
8.20940 0.000044451583
8.21520 0.000044470918
8.22100 0.000044490253
8.22680 0.000044509588
8.23260 0.000044528923
8.23840 0.000044548258
8.24420 0.000044567592
8.25000 0.000044586927
8.25580 0.000044606262
8.26160 0.000044625597
8.26740 0.000044644932
8.27320 0.000044664267
8.27900 0.000044683602
8.28480 0.000044702937
8.29060 0.000044722272
8.29640 0.000044741607
8.30220 0.000044760941
8.30800 0.000044780276
8.31380 0.000044799611
8.31960 0.000044818946
8.32540 0.000044838281
8.33120 0.000044857616
8.33700 0.000044876951
8.34280 0.000044896286
8.34860 0.000044915621
8.35440 0.000044934955
8.36020 0.000044954290
8.36600 0.000044973625
8.37180 0.000044992960
8.37760 0.000045012295
8.38340 0.000045031630
8.38920 0.000045050965
8.39500 0.000045070300
8.40080 0.000045089635
8.40660 0.000045108969
8.41240 0.000045128304
8.41820 0.000045147639
8.42400 0.000045166974
8.42980 0.000045186309
8.43560 0.000045205644
8.44140 0.000045224979
8.44720 0.000045244314
8.45300 0.000045263649
8.45880 0.000045282983
8.46460 0.000045302318
8.47040 0.000045321653
8.47620 0.000045340988
8.48200 0.000045360323
8.48780 0.000045379658
8.49360 0.000045398993
8.49940 0.000045418328
8.50520 0.000045416716
8.51100 0.000045412688
8.51680 0.000045408660
8.52260 0.000045404632
8.52840 0.000045400604
8.53420 0.000045396576
8.54000 0.000045392548
8.54580 0.000045388520
8.55160 0.000045384492
8.55740 0.000045380464
8.56320 0.000045376435
8.56900 0.000045372407
8.57480 0.000045368379
8.58060 0.000045364351
8.58640 0.000045360323
8.59220 0.000045356295
8.59800 0.000045352267
8.60380 0.000045348239
8.60960 0.000045344211
8.61540 0.000045340183
8.62120 0.000045336154
8.62700 0.000045332126
8.63280 0.000045328098
8.63860 0.000045324070
8.64440 0.000045320042
8.65020 0.000045316014
8.65600 0.000045311986
8.66180 0.000045307958
8.66760 0.000045303930
8.67340 0.000045299902
8.67920 0.000045295873
8.68500 0.000045291845
8.69080 0.000045287817
8.69660 0.000045283789
8.70240 0.000045279761
8.70820 0.000045275733
8.71400 0.000045271705
8.71980 0.000045267677
8.72560 0.000045263649
8.73140 0.000045259621
8.73720 0.000045255592
8.74300 0.000045251564
8.74880 0.000045247536
8.75460 0.000045243508
8.76040 0.000045239480
8.76620 0.000045235452
8.77200 0.000045231424
8.77780 0.000045227396
8.78360 0.000045223368
8.78940 0.000045219339
8.79520 0.000045215311
8.80100 0.000045211283
8.80680 0.000045207255
8.81260 0.000045203227
8.81840 0.000045199199
8.82420 0.000045195171
8.83000 0.000045191143
8.83580 0.000045187115
8.84160 0.000045183087
8.84740 0.000045179058
8.85320 0.000045175030
8.85900 0.000045171002
8.86480 0.000045166974
8.87060 0.000045162946
8.87640 0.000045158918
8.88220 0.000045154890
8.88800 0.000045150862
8.89380 0.000045146834
8.89960 0.000045142806
8.90540 0.000045138777
8.91120 0.000045134749
8.91700 0.000045130721
8.92280 0.000045126693
8.92860 0.000045122665
8.93440 0.000045118637
8.94020 0.000045114609
8.94600 0.000045110581
8.95180 0.000045106553
8.95760 0.000045102525
8.96340 0.000045098496
8.96920 0.000045094468
8.97500 0.000045090440
8.98080 0.000045086412
8.98660 0.000045082384
8.99240 0.000045078356
8.99820 0.000045074328
9.00400 0.000045065855
9.00980 0.000045055382
9.01560 0.000045044909
9.02140 0.000045034436
9.02720 0.000045023963
9.03300 0.000045013490
9.03880 0.000045003016
9.04460 0.000044992543
9.05040 0.000044982070
9.05620 0.000044971597
9.06200 0.000044961124
9.06780 0.000044950651
9.07360 0.000044940178
9.07940 0.000044929705
9.08520 0.000044919232
9.09100 0.000044908759
9.09680 0.000044898286
9.10260 0.000044887813
9.10840 0.000044877340
9.11420 0.000044866867
9.12000 0.000044856394
9.12580 0.000044845920
9.13160 0.000044835447
9.13740 0.000044824974
9.14320 0.000044814501
9.14900 0.000044804028
9.15480 0.000044793555
9.16060 0.000044783082
9.16640 0.000044772609
9.17220 0.000044762136
9.17800 0.000044751663
9.18380 0.000044741190
9.18960 0.000044730717
9.19540 0.000044720244
9.20120 0.000044709771
9.20700 0.000044699298
9.21280 0.000044688824
9.21860 0.000044678351
9.22440 0.000044667878
9.23020 0.000044657405
9.23600 0.000044646932
9.24180 0.000044636459
9.24760 0.000044625986
9.25340 0.000044615513
9.25920 0.000044605040
9.26500 0.000044594567
9.27080 0.000044584094
9.27660 0.000044573621
9.28240 0.000044563148
9.28820 0.000044552675
9.29400 0.000044542202
9.29980 0.000044531728
9.30560 0.000044521255
9.31140 0.000044510782
9.31720 0.000044500309
9.32300 0.000044489836
9.32880 0.000044479363
9.33460 0.000044468890
9.34040 0.000044458417
9.34620 0.000044447944
9.35200 0.000044437471
9.35780 0.000044426998
9.36360 0.000044416525
9.36940 0.000044406052
9.37520 0.000044395579
9.38100 0.000044385106
9.38680 0.000044374632
9.39260 0.000044364159
9.39840 0.000044353686
9.40420 0.000044343213
9.41000 0.000044332740
9.41580 0.000044322267
9.42160 0.000044311794
9.42740 0.000044301321
9.43320 0.000044290848
9.43900 0.000044280375
9.44480 0.000044269902
9.45060 0.000044259429
9.45640 0.000044248956
9.46220 0.000044238483
9.46800 0.000044228010
9.47380 0.000044217537
9.47960 0.000044207063
9.48540 0.000044196590
9.49120 0.000044186117
9.49700 0.000044175644
9.50280 0.000044165949
9.50860 0.000044157087
9.51440 0.000044148225
9.52020 0.000044139364
9.52600 0.000044130502
9.53180 0.000044121640
9.53760 0.000044112778
9.54340 0.000044103916
9.54920 0.000044095054
9.55500 0.000044086193
9.56080 0.000044077331
9.56660 0.000044068469
9.57240 0.000044059607
9.57820 0.000044050745
9.58400 0.000044041883
9.58980 0.000044033022
9.59560 0.000044024160
9.60140 0.000044015298
9.60720 0.000044006436
9.61300 0.000043997574
9.61880 0.000043988713
9.62460 0.000043979851
9.63040 0.000043970989
9.63620 0.000043962127
9.64200 0.000043953265
9.64780 0.000043944403
9.65360 0.000043935542
9.65940 0.000043926680
9.66520 0.000043917818
9.67100 0.000043908956
9.67680 0.000043900094
9.68260 0.000043891232
9.68840 0.000043882371
9.69420 0.000043873509
9.70000 0.000043864647
9.70580 0.000043855785
9.71160 0.000043846923
9.71740 0.000043838061
9.72320 0.000043829200
9.72900 0.000043820338
9.73480 0.000043811476
9.74060 0.000043802614
9.74640 0.000043793752
9.75220 0.000043784891
9.75800 0.000043776029
9.76380 0.000043767167
9.76960 0.000043758305
9.77540 0.000043749443
9.78120 0.000043740581
9.78700 0.000043731720
9.79280 0.000043722858
9.79860 0.000043713996
9.80440 0.000043705134
9.81020 0.000043696272
9.81600 0.000043687410
9.82180 0.000043678549
9.82760 0.000043669687
9.83340 0.000043660825
9.83920 0.000043651963
9.84500 0.000043643101
9.85080 0.000043634239
9.85660 0.000043625378
9.86240 0.000043616516
9.86820 0.000043607654
9.87400 0.000043598792
9.87980 0.000043589930
9.88560 0.000043581069
9.89140 0.000043572207
9.89720 0.000043563345
9.90300 0.000043554483
9.90880 0.000043545621
9.91460 0.000043536759
9.92040 0.000043527898
9.92620 0.000043519036
9.93200 0.000043510174
9.93780 0.000043501312
9.94360 0.000043492450
9.94940 0.000043483588
9.95520 0.000043474727
9.96100 0.000043465865
9.96680 0.000043457003
9.97260 0.000043448141
9.97840 0.000043439279
9.98420 0.000043430417
9.99000 0.000043421556
9.99580 0.000043412694
10.00160 0.000043411833
10.00740 0.000043431973
10.01320 0.000043452114
10.01900 0.000043472254
10.02480 0.000043492395
10.03060 0.000043512535
10.03640 0.000043532676
10.04220 0.000043552816
10.04800 0.000043572957
10.05380 0.000043593097
10.05960 0.000043613238
10.06540 0.000043633378
10.07120 0.000043653519
10.07700 0.000043673659
10.08280 0.000043693800
10.08860 0.000043713940
10.09440 0.000043734081
10.10020 0.000043754221
10.10600 0.000043774362
10.11180 0.000043794502
10.11760 0.000043814643
10.12340 0.000043834783
10.12920 0.000043854924
10.13500 0.000043875064
10.14080 0.000043895205
10.14660 0.000043915345
10.15240 0.000043935486
10.15820 0.000043955626
10.16400 0.000043975767
10.16980 0.000043995908
10.17560 0.000044016048
10.18140 0.000044036189
10.18720 0.000044056329
10.19300 0.000044076470
10.19880 0.000044096610
10.20460 0.000044116751
10.21040 0.000044136891
10.21620 0.000044157032
10.22200 0.000044177172
10.22780 0.000044197313
10.23360 0.000044217453
10.23940 0.000044237594
10.24520 0.000044257734
10.25100 0.000044277875
10.25680 0.000044298015
10.26260 0.000044318156
10.26840 0.000044338296
10.27420 0.000044358437
10.28000 0.000044378577
10.28580 0.000044398718
10.29160 0.000044418858
10.29740 0.000044438999
10.30320 0.000044459139
10.30900 0.000044479280
10.31480 0.000044499420
10.32060 0.000044519561
10.32640 0.000044539701
10.33220 0.000044559842
10.33800 0.000044579982
10.34380 0.000044600123
10.34960 0.000044620263
10.35540 0.000044640404
10.36120 0.000044660544
10.36700 0.000044680685
10.37280 0.000044700825
10.37860 0.000044720966
10.38440 0.000044741106
10.39020 0.000044761247
10.39600 0.000044781388
10.40180 0.000044801528
10.40760 0.000044821669
10.41340 0.000044841809
10.41920 0.000044861950
10.42500 0.000044882090
10.43080 0.000044902231
10.43660 0.000044922371
10.44240 0.000044942512
10.44820 0.000044962652
10.45400 0.000044982793
10.45980 0.000045002933
10.46560 0.000045023074
10.47140 0.000045043214
10.47720 0.000045063355
10.48300 0.000045083495
10.48880 0.000045103636
10.49460 0.000045123776
10.50040 0.000045140083
10.50620 0.000045104636
10.51200 0.000045069188
10.51780 0.000045033741
10.52360 0.000044998294
10.52940 0.000044962847
10.53520 0.000044927399
10.54100 0.000044891952
10.54680 0.000044856505
10.55260 0.000044821057
10.55840 0.000044785610
10.56420 0.000044750163
10.57000 0.000044714715
10.57580 0.000044679268
10.58160 0.000044643821
10.58740 0.000044608374
10.59320 0.000044572926
10.59900 0.000044537479
10.60480 0.000044502032
10.61060 0.000044466584
10.61640 0.000044431137
10.62220 0.000044395690
10.62800 0.000044360242
10.63380 0.000044324795
10.63960 0.000044289348
10.64540 0.000044253901
10.65120 0.000044218453
10.65700 0.000044183006
10.66280 0.000044147559
10.66860 0.000044112111
10.67440 0.000044076664
10.68020 0.000044041217
10.68600 0.000044005769
10.69180 0.000043970322
10.69760 0.000043934875
10.70340 0.000043899428
10.70920 0.000043863980
10.71500 0.000043828533
10.72080 0.000043793086
10.72660 0.000043757638
10.73240 0.000043722191
10.73820 0.000043686744
10.74400 0.000043651296
10.74980 0.000043615849
10.75560 0.000043580402
10.76140 0.000043544955
10.76720 0.000043509507
10.77300 0.000043474060
10.77880 0.000043438613
10.78460 0.000043403165
10.79040 0.000043367718
10.79620 0.000043332271
10.80200 0.000043296823
10.80780 0.000043261376
10.81360 0.000043225929
10.81940 0.000043190481
10.82520 0.000043155034
10.83100 0.000043119587
10.83680 0.000043084140
10.84260 0.000043048692
10.84840 0.000043013245
10.85420 0.000042977798
10.86000 0.000042942350
10.86580 0.000042906903
10.87160 0.000042871456
10.87740 0.000042836008
10.88320 0.000042800561
10.88900 0.000042765114
10.89480 0.000042729667
10.90060 0.000042694219
10.90640 0.000042658772
10.91220 0.000042623325
10.91800 0.000042587877
10.92380 0.000042552430
10.92960 0.000042516983
10.93540 0.000042481535
10.94120 0.000042446088
10.94700 0.000042410641
10.95280 0.000042375194
10.95860 0.000042339746
10.96440 0.000042304299
10.97020 0.000042268852
10.97600 0.000042233404
10.98180 0.000042197957
10.98760 0.000042162510
10.99340 0.000042127062
10.99920 0.000042091615
11.00500 0.000042071447
11.01080 0.000042053723
11.01660 0.000042036000
11.02240 0.000042018276
11.02820 0.000042000552
11.03400 0.000041982829
11.03980 0.000041965105
11.04560 0.000041947381
11.05140 0.000041929658
11.05720 0.000041911934
11.06300 0.000041894210
11.06880 0.000041876487
11.07460 0.000041858763
11.08040 0.000041841039
11.08620 0.000041823316
11.09200 0.000041805592
11.09780 0.000041787868
11.10360 0.000041770145
11.10940 0.000041752421
11.11520 0.000041734697
11.12100 0.000041716974
11.12680 0.000041699250
11.13260 0.000041681527
11.13840 0.000041663803
11.14420 0.000041646079
11.15000 0.000041628356
11.15580 0.000041610632
11.16160 0.000041592908
11.16740 0.000041575185
11.17320 0.000041557461
11.17900 0.000041539737
11.18480 0.000041522014
11.19060 0.000041504290
11.19640 0.000041486566
11.20220 0.000041468843
11.20800 0.000041451119
11.21380 0.000041433395
11.21960 0.000041415672
11.22540 0.000041397948
11.23120 0.000041380224
11.23700 0.000041362501
11.24280 0.000041344777
11.24860 0.000041327054
11.25440 0.000041309330
11.26020 0.000041291606
11.26600 0.000041273883
11.27180 0.000041256159
11.27760 0.000041238435
11.28340 0.000041220712
11.28920 0.000041202988
11.29500 0.000041185264
11.30080 0.000041167541
11.30660 0.000041149817
11.31240 0.000041132093
11.31820 0.000041114370
11.32400 0.000041096646
11.32980 0.000041078922
11.33560 0.000041061199
11.34140 0.000041043475
11.34720 0.000041025751
11.35300 0.000041008028
11.35880 0.000040990304
11.36460 0.000040972580
11.37040 0.000040954857
11.37620 0.000040937133
11.38200 0.000040919410
11.38780 0.000040901686
11.39360 0.000040883962
11.39940 0.000040866239
11.40520 0.000040848515
11.41100 0.000040830791
11.41680 0.000040813068
11.42260 0.000040795344
11.42840 0.000040777620
11.43420 0.000040759897
11.44000 0.000040742173
11.44580 0.000040724449
11.45160 0.000040706726
11.45740 0.000040689002
11.46320 0.000040671278
11.46900 0.000040653555
11.47480 0.000040635831
11.48060 0.000040618107
11.48640 0.000040600384
11.49220 0.000040582660
11.49800 0.000040564937
11.50380 0.000040561992
11.50960 0.000040566826
11.51540 0.000040571659
11.52120 0.000040576493
11.52700 0.000040581327
11.53280 0.000040586160
11.53860 0.000040590994
11.54440 0.000040595828
11.55020 0.000040600662
11.55600 0.000040605495
11.56180 0.000040610329
11.56760 0.000040615163
11.57340 0.000040619997
11.57920 0.000040624830
11.58500 0.000040629664
11.59080 0.000040634498
11.59660 0.000040639331
11.60240 0.000040644165
11.60820 0.000040648999
11.61400 0.000040653833
11.61980 0.000040658666
11.62560 0.000040663500
11.63140 0.000040668334
11.63720 0.000040673167
11.64300 0.000040678001
11.64880 0.000040682835
11.65460 0.000040687669
11.66040 0.000040692502
11.66620 0.000040697336
11.67200 0.000040702170
11.67780 0.000040707004
11.68360 0.000040711837
11.68940 0.000040716671
11.69520 0.000040721505
11.70100 0.000040726338
11.70680 0.000040731172
11.71260 0.000040736006
11.71840 0.000040740840
11.72420 0.000040745673
11.73000 0.000040750507
11.73580 0.000040755341
11.74160 0.000040760174
11.74740 0.000040765008
11.75320 0.000040769842
11.75900 0.000040774676
11.76480 0.000040779509
11.77060 0.000040784343
11.77640 0.000040789177
11.78220 0.000040794011
11.78800 0.000040798844
11.79380 0.000040803678
11.79960 0.000040808512
11.80540 0.000040813345
11.81120 0.000040818179
11.81700 0.000040823013
11.82280 0.000040827847
11.82860 0.000040832680
11.83440 0.000040837514
11.84020 0.000040842348
11.84600 0.000040847181
11.85180 0.000040852015
11.85760 0.000040856849
11.86340 0.000040861683
11.86920 0.000040866516
11.87500 0.000040871350
11.88080 0.000040876184
11.88660 0.000040881018
11.89240 0.000040885851
11.89820 0.000040890685
11.90400 0.000040895519
11.90980 0.000040900352
11.91560 0.000040905186
11.92140 0.000040910020
11.92720 0.000040914854
11.93300 0.000040919687
11.93880 0.000040924521
11.94460 0.000040929355
11.95040 0.000040934189
11.95620 0.000040939022
11.96200 0.000040943856
11.96780 0.000040948690
11.97360 0.000040953523
11.97940 0.000040958357
11.98520 0.000040963191
11.99100 0.000040968025
11.99680 0.000040972858
12.00260 0.000040970830
12.00840 0.000040960357
12.01420 0.000040949884
12.02000 0.000040939411
12.02580 0.000040928938
12.03160 0.000040918465
12.03740 0.000040907992
12.04320 0.000040897519
12.04900 0.000040887046
12.05480 0.000040876573
12.06060 0.000040866100
12.06640 0.000040855627
12.07220 0.000040845154
12.07800 0.000040834680
12.08380 0.000040824207
12.08960 0.000040813734
12.09540 0.000040803261
12.10120 0.000040792788
12.10700 0.000040782315
12.11280 0.000040771842
12.11860 0.000040761369
12.12440 0.000040750896
12.13020 0.000040740423
12.13600 0.000040729950
12.14180 0.000040719477
12.14760 0.000040709004
12.15340 0.000040698531
12.15920 0.000040688058
12.16500 0.000040677584
12.17080 0.000040667111
12.17660 0.000040656638
12.18240 0.000040646165
12.18820 0.000040635692
12.19400 0.000040625219
12.19980 0.000040614746
12.20560 0.000040604273
12.21140 0.000040593800
12.21720 0.000040583327
12.22300 0.000040572854
12.22880 0.000040562381
12.23460 0.000040551908
12.24040 0.000040541435
12.24620 0.000040530962
12.25200 0.000040520488
12.25780 0.000040510015
12.26360 0.000040499542
12.26940 0.000040489069
12.27520 0.000040478596
12.28100 0.000040468123
12.28680 0.000040457650
12.29260 0.000040447177
12.29840 0.000040436704
12.30420 0.000040426231
12.31000 0.000040415758
12.31580 0.000040405285
12.32160 0.000040394812
12.32740 0.000040384339
12.33320 0.000040373866
12.33900 0.000040363392
12.34480 0.000040352919
12.35060 0.000040342446
12.35640 0.000040331973
12.36220 0.000040321500
12.36800 0.000040311027
12.37380 0.000040300554
12.37960 0.000040290081
12.38540 0.000040279608
12.39120 0.000040269135
12.39700 0.000040258662
12.40280 0.000040248189
12.40860 0.000040237716
12.41440 0.000040227243
12.42020 0.000040216770
12.42600 0.000040206296
12.43180 0.000040195823
12.43760 0.000040185350
12.44340 0.000040174877
12.44920 0.000040164404
12.45500 0.000040153931
12.46080 0.000040143458
12.46660 0.000040132985
12.47240 0.000040122512
12.47820 0.000040112039
12.48400 0.000040101566
12.48980 0.000040091093
12.49560 0.000040080620
12.50140 0.000040072869
12.50720 0.000040073675
12.51300 0.000040074480
12.51880 0.000040075286
12.52460 0.000040076092
12.53040 0.000040076897
12.53620 0.000040077703
12.54200 0.000040078508
12.54780 0.000040079314
12.55360 0.000040080120
12.55940 0.000040080925
12.56520 0.000040081731
12.57100 0.000040082537
12.57680 0.000040083342
12.58260 0.000040084148
12.58840 0.000040084953
12.59420 0.000040085759
12.60000 0.000040086565
12.60580 0.000040087370
12.61160 0.000040088176
12.61740 0.000040088981
12.62320 0.000040089787
12.62900 0.000040090593
12.63480 0.000040091398
12.64060 0.000040092204
12.64640 0.000040093010
12.65220 0.000040093815
12.65800 0.000040094621
12.66380 0.000040095426
12.66960 0.000040096232
12.67540 0.000040097038
12.68120 0.000040097843
12.68700 0.000040098649
12.69280 0.000040099455
12.69860 0.000040100260
12.70440 0.000040101066
12.71020 0.000040101871
12.71600 0.000040102677
12.72180 0.000040103483
12.72760 0.000040104288
12.73340 0.000040105094
12.73920 0.000040105900
12.74500 0.000040106705
12.75080 0.000040107511
12.75660 0.000040108316
12.76240 0.000040109122
12.76820 0.000040109928
12.77400 0.000040110733
12.77980 0.000040111539
12.78560 0.000040112344
12.79140 0.000040113150
12.79720 0.000040113956
12.80300 0.000040114761
12.80880 0.000040115567
12.81460 0.000040116373
12.82040 0.000040117178
12.82620 0.000040117984
12.83200 0.000040118789
12.83780 0.000040119595
12.84360 0.000040120401
12.84940 0.000040121206
12.85520 0.000040122012
12.86100 0.000040122818
12.86680 0.000040123623
12.87260 0.000040124429
12.87840 0.000040125234
12.88420 0.000040126040
12.89000 0.000040126846
12.89580 0.000040127651
12.90160 0.000040128457
12.90740 0.000040129263
12.91320 0.000040130068
12.91900 0.000040130874
12.92480 0.000040131679
12.93060 0.000040132485
12.93640 0.000040133291
12.94220 0.000040134096
12.94800 0.000040134902
12.95380 0.000040135707
12.95960 0.000040136513
12.96540 0.000040137319
12.97120 0.000040138124
12.97700 0.000040138930
12.98280 0.000040139736
12.98860 0.000040140541
12.99440 0.000040141347
13.00020 0.000040141236
13.00600 0.000040115456
13.01180 0.000040089676
13.01760 0.000040063896
13.02340 0.000040038116
13.02920 0.000040012336
13.03500 0.000039986557
13.04080 0.000039960777
13.04660 0.000039934997
13.05240 0.000039909217
13.05820 0.000039883437
13.06400 0.000039857657
13.06980 0.000039831877
13.07560 0.000039806098
13.08140 0.000039780318
13.08720 0.000039754538
13.09300 0.000039728758
13.09880 0.000039702978
13.10460 0.000039677198
13.11040 0.000039651418
13.11620 0.000039625639
13.12200 0.000039599859
13.12780 0.000039574079
13.13360 0.000039548299
13.13940 0.000039522519
13.14520 0.000039496739
13.15100 0.000039470959
13.15680 0.000039445180
13.16260 0.000039419400
13.16840 0.000039393620
13.17420 0.000039367840
13.18000 0.000039342060
13.18580 0.000039316280
13.19160 0.000039290500
13.19740 0.000039264721
13.20320 0.000039238941
13.20900 0.000039213161
13.21480 0.000039187381
13.22060 0.000039161601
13.22640 0.000039135821
13.23220 0.000039110041
13.23800 0.000039084262
13.24380 0.000039058482
13.24960 0.000039032702
13.25540 0.000039006922
13.26120 0.000038981142
13.26700 0.000038955362
13.27280 0.000038929582
13.27860 0.000038903803
13.28440 0.000038878023
13.29020 0.000038852243
13.29600 0.000038826463
13.30180 0.000038800683
13.30760 0.000038774903
13.31340 0.000038749123
13.31920 0.000038723344
13.32500 0.000038697564
13.33080 0.000038671784
13.33660 0.000038646004
13.34240 0.000038620224
13.34820 0.000038594444
13.35400 0.000038568664
13.35980 0.000038542885
13.36560 0.000038517105
13.37140 0.000038491325
13.37720 0.000038465545
13.38300 0.000038439765
13.38880 0.000038413985
13.39460 0.000038388205
13.40040 0.000038362426
13.40620 0.000038336646
13.41200 0.000038310866
13.41780 0.000038285086
13.42360 0.000038259306
13.42940 0.000038233526
13.43520 0.000038207747
13.44100 0.000038181967
13.44680 0.000038156187
13.45260 0.000038130407
13.45840 0.000038104627
13.46420 0.000038078847
13.47000 0.000038053067
13.47580 0.000038027288
13.48160 0.000038001508
13.48740 0.000037975728
13.49320 0.000037949948
13.49900 0.000037924168
13.50480 0.000037942392
13.51060 0.000037969783
13.51640 0.000037997174
13.52220 0.000038024565
13.52800 0.000038051956
13.53380 0.000038079347
13.53960 0.000038106738
13.54540 0.000038134129
13.55120 0.000038161521
13.55700 0.000038188912
13.56280 0.000038216303
13.56860 0.000038243694
13.57440 0.000038271085
13.58020 0.000038298476
13.58600 0.000038325867
13.59180 0.000038353258
13.59760 0.000038380649
13.60340 0.000038408040
13.60920 0.000038435432
13.61500 0.000038462823
13.62080 0.000038490214
13.62660 0.000038517605
13.63240 0.000038544996
13.63820 0.000038572387
13.64400 0.000038599778
13.64980 0.000038627169
13.65560 0.000038654560
13.66140 0.000038681951
13.66720 0.000038709342
13.67300 0.000038736734
13.67880 0.000038764125
13.68460 0.000038791516
13.69040 0.000038818907
13.69620 0.000038846298
13.70200 0.000038873689
13.70780 0.000038901080
13.71360 0.000038928471
13.71940 0.000038955862
13.72520 0.000038983253
13.73100 0.000039010645
13.73680 0.000039038036
13.74260 0.000039065427
13.74840 0.000039092818
13.75420 0.000039120209
13.76000 0.000039147600
13.76580 0.000039174991
13.77160 0.000039202382
13.77740 0.000039229773
13.78320 0.000039257164
13.78900 0.000039284556
13.79480 0.000039311947
13.80060 0.000039339338
13.80640 0.000039366729
13.81220 0.000039394120
13.81800 0.000039421511
13.82380 0.000039448902
13.82960 0.000039476293
13.83540 0.000039503684
13.84120 0.000039531075
13.84700 0.000039558466
13.85280 0.000039585858
13.85860 0.000039613249
13.86440 0.000039640640
13.87020 0.000039668031
13.87600 0.000039695422
13.88180 0.000039722813
13.88760 0.000039750204
13.89340 0.000039777595
13.89920 0.000039804986
13.90500 0.000039832377
13.91080 0.000039859769
13.91660 0.000039887160
13.92240 0.000039914551
13.92820 0.000039941942
13.93400 0.000039969333
13.93980 0.000039996724
13.94560 0.000040024115
13.95140 0.000040051506
13.95720 0.000040078897
13.96300 0.000040106288
13.96880 0.000040133680
13.97460 0.000040161071
13.98040 0.000040188462
13.98620 0.000040215853
13.99200 0.000040243244
13.99780 0.000040270635
14.00360 0.000040307527
14.00940 0.000040350225
14.01520 0.000040392923
14.02100 0.000040435621
14.02680 0.000040478318
14.03260 0.000040521016
14.03840 0.000040563714
14.04420 0.000040606412
14.05000 0.000040649110
14.05580 0.000040691808
14.06160 0.000040734506
14.06740 0.000040777204
14.07320 0.000040819902
14.07900 0.000040862599
14.08480 0.000040905297
14.09060 0.000040947995
14.09640 0.000040990693
14.10220 0.000041033391
14.10800 0.000041076089
14.11380 0.000041118787
14.11960 0.000041161485
14.12540 0.000041204182
14.13120 0.000041246880
14.13700 0.000041289578
14.14280 0.000041332276
14.14860 0.000041374974
14.15440 0.000041417672
14.16020 0.000041460370
14.16600 0.000041503068
14.17180 0.000041545766
14.17760 0.000041588463
14.18340 0.000041631161
14.18920 0.000041673859
14.19500 0.000041716557
14.20080 0.000041759255
14.20660 0.000041801953
14.21240 0.000041844651
14.21820 0.000041887349
14.22400 0.000041930047
14.22980 0.000041972744
14.23560 0.000042015442
14.24140 0.000042058140
14.24720 0.000042100838
14.25300 0.000042143536
14.25880 0.000042186234
14.26460 0.000042228932
14.27040 0.000042271630
14.27620 0.000042314328
14.28200 0.000042357025
14.28780 0.000042399723
14.29360 0.000042442421
14.29940 0.000042485119
14.30520 0.000042527817
14.31100 0.000042570515
14.31680 0.000042613213
14.32260 0.000042655911
14.32840 0.000042698609
14.33420 0.000042741306
14.34000 0.000042784004
14.34580 0.000042826702
14.35160 0.000042869400
14.35740 0.000042912098
14.36320 0.000042954796
14.36900 0.000042997494
14.37480 0.000043040192
14.38060 0.000043082889
14.38640 0.000043125587
14.39220 0.000043168285
14.39800 0.000043210983
14.40380 0.000043253681
14.40960 0.000043296379
14.41540 0.000043339077
14.42120 0.000043381775
14.42700 0.000043424473
14.43280 0.000043467170
14.43860 0.000043509868
14.44440 0.000043552566
14.45020 0.000043595264
14.45600 0.000043637962
14.46180 0.000043680660
14.46760 0.000043723358
14.47340 0.000043766056
14.47920 0.000043808754
14.48500 0.000043851451
14.49080 0.000043894149
14.49660 0.000043936847
14.50240 0.000043962544
14.50820 0.000043964155
14.51400 0.000043965766
14.51980 0.000043967377
14.52560 0.000043968989
14.53140 0.000043970600
14.53720 0.000043972211
14.54300 0.000043973822
14.54880 0.000043975434
14.55460 0.000043977045
14.56040 0.000043978656
14.56620 0.000043980267
14.57200 0.000043981879
14.57780 0.000043983490
14.58360 0.000043985101
14.58940 0.000043986712
14.59520 0.000043988324
14.60100 0.000043989935
14.60680 0.000043991546
14.61260 0.000043993157
14.61840 0.000043994769
14.62420 0.000043996380
14.63000 0.000043997991
14.63580 0.000043999602
14.64160 0.000044001214
14.64740 0.000044002825
14.65320 0.000044004436
14.65900 0.000044006047
14.66480 0.000044007658
14.67060 0.000044009270
14.67640 0.000044010881
14.68220 0.000044012492
14.68800 0.000044014103
14.69380 0.000044015715
14.69960 0.000044017326
14.70540 0.000044018937
14.71120 0.000044020548
14.71700 0.000044022160
14.72280 0.000044023771
14.72860 0.000044025382
14.73440 0.000044026993
14.74020 0.000044028605
14.74600 0.000044030216
14.75180 0.000044031827
14.75760 0.000044033438
14.76340 0.000044035050
14.76920 0.000044036661
14.77500 0.000044038272
14.78080 0.000044039883
14.78660 0.000044041495
14.79240 0.000044043106
14.79820 0.000044044717
14.80400 0.000044046328
14.80980 0.000044047939
14.81560 0.000044049551
14.82140 0.000044051162
14.82720 0.000044052773
14.83300 0.000044054384
14.83880 0.000044055996
14.84460 0.000044057607
14.85040 0.000044059218
14.85620 0.000044060829
14.86200 0.000044062441
14.86780 0.000044064052
14.87360 0.000044065663
14.87940 0.000044067274
14.88520 0.000044068886
14.89100 0.000044070497
14.89680 0.000044072108
14.90260 0.000044073719
14.90840 0.000044075331
14.91420 0.000044076942
14.92000 0.000044078553
14.92580 0.000044080164
14.93160 0.000044081776
14.93740 0.000044083387
14.94320 0.000044084998
14.94900 0.000044086609
14.95480 0.000044088221
14.96060 0.000044089832
14.96640 0.000044091443
14.97220 0.000044093054
14.97800 0.000044094665
14.98380 0.000044096277
14.98960 0.000044097888
14.99540 0.000044099499
15.00120 0.000044097944
15.00700 0.000044084248
15.01280 0.000044070552
15.01860 0.000044056857
15.02440 0.000044043161
15.03020 0.000044029466
15.03600 0.000044015770
15.04180 0.000044002075
15.04760 0.000043988379
15.05340 0.000043974684
15.05920 0.000043960988
15.06500 0.000043947292
15.07080 0.000043933597
15.07660 0.000043919901
15.08240 0.000043906206
15.08820 0.000043892510
15.09400 0.000043878815
15.09980 0.000043865119
15.10560 0.000043851424
15.11140 0.000043837728
15.11720 0.000043824033
15.12300 0.000043810337
15.12880 0.000043796641
15.13460 0.000043782946
15.14040 0.000043769250
15.14620 0.000043755555
15.15200 0.000043741859
15.15780 0.000043728164
15.16360 0.000043714468
15.16940 0.000043700773
15.17520 0.000043687077
15.18100 0.000043673382
15.18680 0.000043659686
15.19260 0.000043645990
15.19840 0.000043632295
15.20420 0.000043618599
15.21000 0.000043604904
15.21580 0.000043591208
15.22160 0.000043577513
15.22740 0.000043563817
15.23320 0.000043550122
15.23900 0.000043536426
15.24480 0.000043522730
15.25060 0.000043509035
15.25640 0.000043495339
15.26220 0.000043481644
15.26800 0.000043467948
15.27380 0.000043454253
15.27960 0.000043440557
15.28540 0.000043426862
15.29120 0.000043413166
15.29700 0.000043399471
15.30280 0.000043385775
15.30860 0.000043372079
15.31440 0.000043358384
15.32020 0.000043344688
15.32600 0.000043330993
15.33180 0.000043317297
15.33760 0.000043303602
15.34340 0.000043289906
15.34920 0.000043276211
15.35500 0.000043262515
15.36080 0.000043248820
15.36660 0.000043235124
15.37240 0.000043221428
15.37820 0.000043207733
15.38400 0.000043194037
15.38980 0.000043180342
15.39560 0.000043166646
15.40140 0.000043152951
15.40720 0.000043139255
15.41300 0.000043125560
15.41880 0.000043111864
15.42460 0.000043098168
15.43040 0.000043084473
15.43620 0.000043070777
15.44200 0.000043057082
15.44780 0.000043043386
15.45360 0.000043029691
15.45940 0.000043015995
15.46520 0.000043002300
15.47100 0.000042988604
15.47680 0.000042974909
15.48260 0.000042961213
15.48840 0.000042947517
15.49420 0.000042933822
15.50000 0.000042920126
15.50580 0.000042897569
15.51160 0.000042875012
15.51740 0.000042852454
15.52320 0.000042829897
15.52900 0.000042807339
15.53480 0.000042784782
15.54060 0.000042762225
15.54640 0.000042739667
15.55220 0.000042717110
15.55800 0.000042694553
15.56380 0.000042671995
15.56960 0.000042649438
15.57540 0.000042626881
15.58120 0.000042604323
15.58700 0.000042581766
15.59280 0.000042559208
15.59860 0.000042536651
15.60440 0.000042514094
15.61020 0.000042491536
15.61600 0.000042468979
15.62180 0.000042446422
15.62760 0.000042423864
15.63340 0.000042401307
15.63920 0.000042378749
15.64500 0.000042356192
15.65080 0.000042333635
15.65660 0.000042311077
15.66240 0.000042288520
15.66820 0.000042265963
15.67400 0.000042243405
15.67980 0.000042220848
15.68560 0.000042198290
15.69140 0.000042175733
15.69720 0.000042153176
15.70300 0.000042130618
15.70880 0.000042108061
15.71460 0.000042085504
15.72040 0.000042062946
15.72620 0.000042040389
15.73200 0.000042017831
15.73780 0.000041995274
15.74360 0.000041972717
15.74940 0.000041950159
15.75520 0.000041927602
15.76100 0.000041905045
15.76680 0.000041882487
15.77260 0.000041859930
15.77840 0.000041837372
15.78420 0.000041814815
15.79000 0.000041792258
15.79580 0.000041769700
15.80160 0.000041747143
15.80740 0.000041724586
15.81320 0.000041702028
15.81900 0.000041679471
15.82480 0.000041656913
15.83060 0.000041634356
15.83640 0.000041611799
15.84220 0.000041589241
15.84800 0.000041566684
15.85380 0.000041544127
15.85960 0.000041521569
15.86540 0.000041499012
15.87120 0.000041476454
15.87700 0.000041453897
15.88280 0.000041431340
15.88860 0.000041408782
15.89440 0.000041386225
15.90020 0.000041363668
15.90600 0.000041341110
15.91180 0.000041318553
15.91760 0.000041295995
15.92340 0.000041273438
15.92920 0.000041250881
15.93500 0.000041228323
15.94080 0.000041205766
15.94660 0.000041183209
15.95240 0.000041160651
15.95820 0.000041138094
15.96400 0.000041115536
15.96980 0.000041092979
15.97560 0.000041070422
15.98140 0.000041047864
15.98720 0.000041025307
15.99300 0.000041002750
15.99880 0.000040980192
16.00460 0.000040977442
16.01040 0.000040979859
16.01620 0.000040982276
16.02200 0.000040984693
16.02780 0.000040987109
16.03360 0.000040989526
16.03940 0.000040991943
16.04520 0.000040994360
16.05100 0.000040996777
16.05680 0.000040999194
16.06260 0.000041001611
16.06840 0.000041004027
16.07420 0.000041006444
16.08000 0.000041008861
16.08580 0.000041011278
16.09160 0.000041013695
16.09740 0.000041016112
16.10320 0.000041018529
16.10900 0.000041020945
16.11480 0.000041023362
16.12060 0.000041025779
16.12640 0.000041028196
16.13220 0.000041030613
16.13800 0.000041033030
16.14380 0.000041035447
16.14960 0.000041037864
16.15540 0.000041040280
16.16120 0.000041042697
16.16700 0.000041045114
16.17280 0.000041047531
16.17860 0.000041049948
16.18440 0.000041052365
16.19020 0.000041054782
16.19600 0.000041057198
16.20180 0.000041059615
16.20760 0.000041062032
16.21340 0.000041064449
16.21920 0.000041066866
16.22500 0.000041069283
16.23080 0.000041071700
16.23660 0.000041074116
16.24240 0.000041076533
16.24820 0.000041078950
16.25400 0.000041081367
16.25980 0.000041083784
16.26560 0.000041086201
16.27140 0.000041088618
16.27720 0.000041091034
16.28300 0.000041093451
16.28880 0.000041095868
16.29460 0.000041098285
16.30040 0.000041100702
16.30620 0.000041103119
16.31200 0.000041105536
16.31780 0.000041107953
16.32360 0.000041110369
16.32940 0.000041112786
16.33520 0.000041115203
16.34100 0.000041117620
16.34680 0.000041120037
16.35260 0.000041122454
16.35840 0.000041124871
16.36420 0.000041127287
16.37000 0.000041129704
16.37580 0.000041132121
16.38160 0.000041134538
16.38740 0.000041136955
16.39320 0.000041139372
16.39900 0.000041141789
16.40480 0.000041144205
16.41060 0.000041146622
16.41640 0.000041149039
16.42220 0.000041151456
16.42800 0.000041153873
16.43380 0.000041156290
16.43960 0.000041158707
16.44540 0.000041161123
16.45120 0.000041163540
16.45700 0.000041165957
16.46280 0.000041168374
16.46860 0.000041170791
16.47440 0.000041173208
16.48020 0.000041175625
16.48600 0.000041178041
16.49180 0.000041180458
16.49760 0.000041182875
16.50340 0.000041190959
16.50920 0.000041203044
16.51500 0.000041215128
16.52080 0.000041227212
16.52660 0.000041239296
16.53240 0.000041251381
16.53820 0.000041263465
16.54400 0.000041275549
16.54980 0.000041287634
16.55560 0.000041299718
16.56140 0.000041311802
16.56720 0.000041323887
16.57300 0.000041335971
16.57880 0.000041348055
16.58460 0.000041360140
16.59040 0.000041372224
16.59620 0.000041384308
16.60200 0.000041396392
16.60780 0.000041408477
16.61360 0.000041420561
16.61940 0.000041432645
16.62520 0.000041444730
16.63100 0.000041456814
16.63680 0.000041468898
16.64260 0.000041480983
16.64840 0.000041493067
16.65420 0.000041505151
16.66000 0.000041517236
16.66580 0.000041529320
16.67160 0.000041541404
16.67740 0.000041553488
16.68320 0.000041565573
16.68900 0.000041577657
16.69480 0.000041589741
16.70060 0.000041601826
16.70640 0.000041613910
16.71220 0.000041625994
16.71800 0.000041638079
16.72380 0.000041650163
16.72960 0.000041662247
16.73540 0.000041674331
16.74120 0.000041686416
16.74700 0.000041698500
16.75280 0.000041710584
16.75860 0.000041722669
16.76440 0.000041734753
16.77020 0.000041746837
16.77600 0.000041758922
16.78180 0.000041771006
16.78760 0.000041783090
16.79340 0.000041795175
16.79920 0.000041807259
16.80500 0.000041819343
16.81080 0.000041831427
16.81660 0.000041843512
16.82240 0.000041855596
16.82820 0.000041867680
16.83400 0.000041879765
16.83980 0.000041891849
16.84560 0.000041903933
16.85140 0.000041916018
16.85720 0.000041928102
16.86300 0.000041940186
16.86880 0.000041952271
16.87460 0.000041964355
16.88040 0.000041976439
16.88620 0.000041988523
16.89200 0.000042000608
16.89780 0.000042012692
16.90360 0.000042024776
16.90940 0.000042036861
16.91520 0.000042048945
16.92100 0.000042061029
16.92680 0.000042073114
16.93260 0.000042085198
16.93840 0.000042097282
16.94420 0.000042109367
16.95000 0.000042121451
16.95580 0.000042133535
16.96160 0.000042145619
16.96740 0.000042157704
16.97320 0.000042169788
16.97900 0.000042181872
16.98480 0.000042193957
16.99060 0.000042206041
16.99640 0.000042218125
17.00220 0.000042222876
17.00800 0.000042215625
17.01380 0.000042208375
17.01960 0.000042201124
17.02540 0.000042193873
17.03120 0.000042186623
17.03700 0.000042179372
17.04280 0.000042172122
17.04860 0.000042164871
17.05440 0.000042157620
17.06020 0.000042150370
17.06600 0.000042143119
17.07180 0.000042135869
17.07760 0.000042128618
17.08340 0.000042121368
17.08920 0.000042114117
17.09500 0.000042106866
17.10080 0.000042099616
17.10660 0.000042092365
17.11240 0.000042085115
17.11820 0.000042077864
17.12400 0.000042070613
17.12980 0.000042063363
17.13560 0.000042056112
17.14140 0.000042048862
17.14720 0.000042041611
17.15300 0.000042034361
17.15880 0.000042027110
17.16460 0.000042019859
17.17040 0.000042012609
17.17620 0.000042005358
17.18200 0.000041998108
17.18780 0.000041990857
17.19360 0.000041983606
17.19940 0.000041976356
17.20520 0.000041969105
17.21100 0.000041961855
17.21680 0.000041954604
17.22260 0.000041947354
17.22840 0.000041940103
17.23420 0.000041932852
17.24000 0.000041925602
17.24580 0.000041918351
17.25160 0.000041911101
17.25740 0.000041903850
17.26320 0.000041896599
17.26900 0.000041889349
17.27480 0.000041882098
17.28060 0.000041874848
17.28640 0.000041867597
17.29220 0.000041860346
17.29800 0.000041853096
17.30380 0.000041845845
17.30960 0.000041838595
17.31540 0.000041831344
17.32120 0.000041824094
17.32700 0.000041816843
17.33280 0.000041809592
17.33860 0.000041802342
17.34440 0.000041795091
17.35020 0.000041787841
17.35600 0.000041780590
17.36180 0.000041773339
17.36760 0.000041766089
17.37340 0.000041758838
17.37920 0.000041751588
17.38500 0.000041744337
17.39080 0.000041737087
17.39660 0.000041729836
17.40240 0.000041722585
17.40820 0.000041715335
17.41400 0.000041708084
17.41980 0.000041700834
17.42560 0.000041693583
17.43140 0.000041686332
17.43720 0.000041679082
17.44300 0.000041671831
17.44880 0.000041664581
17.45460 0.000041657330
17.46040 0.000041650080
17.46620 0.000041642829
17.47200 0.000041635578
17.47780 0.000041628328
17.48360 0.000041621077
17.48940 0.000041613827
17.49520 0.000041606576
17.50100 0.000041597659
17.50680 0.000041580741
17.51260 0.000041563823
17.51840 0.000041546905
17.52420 0.000041529987
17.53000 0.000041513068
17.53580 0.000041496150
17.54160 0.000041479232
17.54740 0.000041462314
17.55320 0.000041445396
17.55900 0.000041428478
17.56480 0.000041411560
17.57060 0.000041394642
17.57640 0.000041377724
17.58220 0.000041360806
17.58800 0.000041343888
17.59380 0.000041326970
17.59960 0.000041310052
17.60540 0.000041293134
17.61120 0.000041276216
17.61700 0.000041259298
17.62280 0.000041242380
17.62860 0.000041225462
17.63440 0.000041208544
17.64020 0.000041191626
17.64600 0.000041174708
17.65180 0.000041157790
17.65760 0.000041140872
17.66340 0.000041123954
17.66920 0.000041107036
17.67500 0.000041090118
17.68080 0.000041073200
17.68660 0.000041056282
17.69240 0.000041039364
17.69820 0.000041022446
17.70400 0.000041005528
17.70980 0.000040988610
17.71560 0.000040971692
17.72140 0.000040954773
17.72720 0.000040937855
17.73300 0.000040920937
17.73880 0.000040904019
17.74460 0.000040887101
17.75040 0.000040870183
17.75620 0.000040853265
17.76200 0.000040836347
17.76780 0.000040819429
17.77360 0.000040802511
17.77940 0.000040785593
17.78520 0.000040768675
17.79100 0.000040751757
17.79680 0.000040734839
17.80260 0.000040717921
17.80840 0.000040701003
17.81420 0.000040684085
17.82000 0.000040667167
17.82580 0.000040650249
17.83160 0.000040633331
17.83740 0.000040616413
17.84320 0.000040599495
17.84900 0.000040582577
17.85480 0.000040565659
17.86060 0.000040548741
17.86640 0.000040531823
17.87220 0.000040514905
17.87800 0.000040497987
17.88380 0.000040481069
17.88960 0.000040464151
17.89540 0.000040447233
17.90120 0.000040430315
17.90700 0.000040413397
17.91280 0.000040396478
17.91860 0.000040379560
17.92440 0.000040362642
17.93020 0.000040345724
17.93600 0.000040328806
17.94180 0.000040311888
17.94760 0.000040294970
17.95340 0.000040278052
17.95920 0.000040261134
17.96500 0.000040244216
17.97080 0.000040227298
17.97660 0.000040210380
17.98240 0.000040193462
17.98820 0.000040176544
17.99400 0.000040159626
17.99980 0.000040142708
18.00560 0.000040140569
18.01140 0.000040138958
18.01720 0.000040137346
18.02300 0.000040135735
18.02880 0.000040134124
18.03460 0.000040132513
18.04040 0.000040130902
18.04620 0.000040129290
18.05200 0.000040127679
18.05780 0.000040126068
18.06360 0.000040124457
18.06940 0.000040122845
18.07520 0.000040121234
18.08100 0.000040119623
18.08680 0.000040118012
18.09260 0.000040116400
18.09840 0.000040114789
18.10420 0.000040113178
18.11000 0.000040111567
18.11580 0.000040109955
18.12160 0.000040108344
18.12740 0.000040106733
18.13320 0.000040105122
18.13900 0.000040103510
18.14480 0.000040101899
18.15060 0.000040100288
18.15640 0.000040098677
18.16220 0.000040097065
18.16800 0.000040095454
18.17380 0.000040093843
18.17960 0.000040092232
18.18540 0.000040090621
18.19120 0.000040089009
18.19700 0.000040087398
18.20280 0.000040085787
18.20860 0.000040084176
18.21440 0.000040082564
18.22020 0.000040080953
18.22600 0.000040079342
18.23180 0.000040077731
18.23760 0.000040076119
18.24340 0.000040074508
18.24920 0.000040072897
18.25500 0.000040071286
18.26080 0.000040069674
18.26660 0.000040068063
18.27240 0.000040066452
18.27820 0.000040064841
18.28400 0.000040063229
18.28980 0.000040061618
18.29560 0.000040060007
18.30140 0.000040058396
18.30720 0.000040056784
18.31300 0.000040055173
18.31880 0.000040053562
18.32460 0.000040051951
18.33040 0.000040050339
18.33620 0.000040048728
18.34200 0.000040047117
18.34780 0.000040045506
18.35360 0.000040043895
18.35940 0.000040042283
18.36520 0.000040040672
18.37100 0.000040039061
18.37680 0.000040037450
18.38260 0.000040035838
18.38840 0.000040034227
18.39420 0.000040032616
18.40000 0.000040031005
18.40580 0.000040029393
18.41160 0.000040027782
18.41740 0.000040026171
18.42320 0.000040024560
18.42900 0.000040022948
18.43480 0.000040021337
18.44060 0.000040019726
18.44640 0.000040018115
18.45220 0.000040016503
18.45800 0.000040014892
18.46380 0.000040013281
18.46960 0.000040011670
18.47540 0.000040010058
18.48120 0.000040008447
18.48700 0.000040006836
18.49280 0.000040005225
18.49860 0.000040003613
18.50440 0.000039979389
18.51020 0.000039947970
18.51600 0.000039916551
18.52180 0.000039885132
18.52760 0.000039853713
18.53340 0.000039822293
18.53920 0.000039790874
18.54500 0.000039759455
18.55080 0.000039728036
18.55660 0.000039696617
18.56240 0.000039665197
18.56820 0.000039633778
18.57400 0.000039602359
18.57980 0.000039570940
18.58560 0.000039539521
18.59140 0.000039508101
18.59720 0.000039476682
18.60300 0.000039445263
18.60880 0.000039413844
18.61460 0.000039382425
18.62040 0.000039351005
18.62620 0.000039319586
18.63200 0.000039288167
18.63780 0.000039256748
18.64360 0.000039225329
18.64940 0.000039193909
18.65520 0.000039162490
18.66100 0.000039131071
18.66680 0.000039099652
18.67260 0.000039068233
18.67840 0.000039036813
18.68420 0.000039005394
18.69000 0.000038973975
18.69580 0.000038942556
18.70160 0.000038911137
18.70740 0.000038879717
18.71320 0.000038848298
18.71900 0.000038816879
18.72480 0.000038785460
18.73060 0.000038754041
18.73640 0.000038722621
18.74220 0.000038691202
18.74800 0.000038659783
18.75380 0.000038628364
18.75960 0.000038596945
18.76540 0.000038565525
18.77120 0.000038534106
18.77700 0.000038502687
18.78280 0.000038471268
18.78860 0.000038439849
18.79440 0.000038408429
18.80020 0.000038377010
18.80600 0.000038345591
18.81180 0.000038314172
18.81760 0.000038282753
18.82340 0.000038251333
18.82920 0.000038219914
18.83500 0.000038188495
18.84080 0.000038157076
18.84660 0.000038125657
18.85240 0.000038094237
18.85820 0.000038062818
18.86400 0.000038031399
18.86980 0.000037999980
18.87560 0.000037968561
18.88140 0.000037937141
18.88720 0.000037905722
18.89300 0.000037874303
18.89880 0.000037842884
18.90460 0.000037811465
18.91040 0.000037780045
18.91620 0.000037748626
18.92200 0.000037717207
18.92780 0.000037685788
18.93360 0.000037654369
18.93940 0.000037622949
18.94520 0.000037591530
18.95100 0.000037560111
18.95680 0.000037528692
18.96260 0.000037497273
18.96840 0.000037465853
18.97420 0.000037434434
18.98000 0.000037403015
18.98580 0.000037371596
18.99160 0.000037340177
18.99740 0.000037308757
19.00320 0.000037288450
19.00900 0.000037277171
19.01480 0.000037265893
19.02060 0.000037254614
19.02640 0.000037243335
19.03220 0.000037232057
19.03800 0.000037220778
19.04380 0.000037209499
19.04960 0.000037198221
19.05540 0.000037186942
19.06120 0.000037175663
19.06700 0.000037164385
19.07280 0.000037153106
19.07860 0.000037141827
19.08440 0.000037130549
19.09020 0.000037119270
19.09600 0.000037107991
19.10180 0.000037096713
19.10760 0.000037085434
19.11340 0.000037074155
19.11920 0.000037062876
19.12500 0.000037051598
19.13080 0.000037040319
19.13660 0.000037029040
19.14240 0.000037017762
19.14820 0.000037006483
19.15400 0.000036995204
19.15980 0.000036983926
19.16560 0.000036972647
19.17140 0.000036961368
19.17720 0.000036950090
19.18300 0.000036938811
19.18880 0.000036927532
19.19460 0.000036916254
19.20040 0.000036904975
19.20620 0.000036893696
19.21200 0.000036882417
19.21780 0.000036871139
19.22360 0.000036859860
19.22940 0.000036848581
19.23520 0.000036837303
19.24100 0.000036826024
19.24680 0.000036814745
19.25260 0.000036803467
19.25840 0.000036792188
19.26420 0.000036780909
19.27000 0.000036769631
19.27580 0.000036758352
19.28160 0.000036747073
19.28740 0.000036735795
19.29320 0.000036724516
19.29900 0.000036713237
19.30480 0.000036701958
19.31060 0.000036690680
19.31640 0.000036679401
19.32220 0.000036668122
19.32800 0.000036656844
19.33380 0.000036645565
19.33960 0.000036634286
19.34540 0.000036623008
19.35120 0.000036611729
19.35700 0.000036600450
19.36280 0.000036589172
19.36860 0.000036577893
19.37440 0.000036566614
19.38020 0.000036555336
19.38600 0.000036544057
19.39180 0.000036532778
19.39760 0.000036521499
19.40340 0.000036510221
19.40920 0.000036498942
19.41500 0.000036487663
19.42080 0.000036476385
19.42660 0.000036465106
19.43240 0.000036453827
19.43820 0.000036442549
19.44400 0.000036431270
19.44980 0.000036419991
19.45560 0.000036408713
19.46140 0.000036397434
19.46720 0.000036386155
19.47300 0.000036374877
19.47880 0.000036363598
19.48460 0.000036352319
19.49040 0.000036341040
19.49620 0.000036329762
19.50200 0.000036325428
19.50780 0.000036334290
19.51360 0.000036343152
19.51940 0.000036352014
19.52520 0.000036360875
19.53100 0.000036369737
19.53680 0.000036378599
19.54260 0.000036387461
19.54840 0.000036396323
19.55420 0.000036405185
19.56000 0.000036414046
19.56580 0.000036422908
19.57160 0.000036431770
19.57740 0.000036440632
19.58320 0.000036449494
19.58900 0.000036458355
19.59480 0.000036467217
19.60060 0.000036476079
19.60640 0.000036484941
19.61220 0.000036493803
19.61800 0.000036502665
19.62380 0.000036511526
19.62960 0.000036520388
19.63540 0.000036529250
19.64120 0.000036538112
19.64700 0.000036546974
19.65280 0.000036555836
19.65860 0.000036564697
19.66440 0.000036573559
19.67020 0.000036582421
19.67600 0.000036591283
19.68180 0.000036600145
19.68760 0.000036609007
19.69340 0.000036617868
19.69920 0.000036626730
19.70500 0.000036635592
19.71080 0.000036644454
19.71660 0.000036653316
19.72240 0.000036662177
19.72820 0.000036671039
19.73400 0.000036679901
19.73980 0.000036688763
19.74560 0.000036697625
19.75140 0.000036706487
19.75720 0.000036715348
19.76300 0.000036724210
19.76880 0.000036733072
19.77460 0.000036741934
19.78040 0.000036750796
19.78620 0.000036759658
19.79200 0.000036768519
19.79780 0.000036777381
19.80360 0.000036786243
19.80940 0.000036795105
19.81520 0.000036803967
19.82100 0.000036812829
19.82680 0.000036821690
19.83260 0.000036830552
19.83840 0.000036839414
19.84420 0.000036848276
19.85000 0.000036857138
19.85580 0.000036865999
19.86160 0.000036874861
19.86740 0.000036883723
19.87320 0.000036892585
19.87900 0.000036901447
19.88480 0.000036910309
19.89060 0.000036919170
19.89640 0.000036928032
19.90220 0.000036936894
19.90800 0.000036945756
19.91380 0.000036954618
19.91960 0.000036963480
19.92540 0.000036972341
19.93120 0.000036981203
19.93700 0.000036990065
19.94280 0.000036998927
19.94860 0.000037007789
19.95440 0.000037016650
19.96020 0.000037025512
19.96600 0.000037034374
19.97180 0.000037043236
19.97760 0.000037052098
19.98340 0.000037060960
19.98920 0.000037069821
19.99500 0.000037078683
20.00080 0.000037087434
20.00660 0.000037095490
20.01240 0.000037103546
20.01820 0.000037111603
20.02400 0.000037119659
20.02980 0.000037127715
20.03560 0.000037135771
20.04140 0.000037143827
20.04720 0.000037151884
20.05300 0.000037159940
20.05880 0.000037167996
20.06460 0.000037176052
20.07040 0.000037184108
20.07620 0.000037192165
20.08200 0.000037200221
20.08780 0.000037208277
20.09360 0.000037216333
20.09940 0.000037224389
20.10520 0.000037232446
20.11100 0.000037240502
20.11680 0.000037248558
20.12260 0.000037256614
20.12840 0.000037264670
20.13420 0.000037272727
20.14000 0.000037280783
20.14580 0.000037288839
20.15160 0.000037296895
20.15740 0.000037304952
20.16320 0.000037313008
20.16900 0.000037321064
20.17480 0.000037329120
20.18060 0.000037337176
20.18640 0.000037345233
20.19220 0.000037353289
20.19800 0.000037361345
20.20380 0.000037369401
20.20960 0.000037377457
20.21540 0.000037385514
20.22120 0.000037393570
20.22700 0.000037401626
20.23280 0.000037409682
20.23860 0.000037417738
20.24440 0.000037425795
20.25020 0.000037433851
20.25600 0.000037441907
20.26180 0.000037449963
20.26760 0.000037458019
20.27340 0.000037466076
20.27920 0.000037474132
20.28500 0.000037482188
20.29080 0.000037490244
20.29660 0.000037498300
20.30240 0.000037506357
20.30820 0.000037514413
20.31400 0.000037522469
20.31980 0.000037530525
20.32560 0.000037538581
20.33140 0.000037546638
20.33720 0.000037554694
20.34300 0.000037562750
20.34880 0.000037570806
20.35460 0.000037578862
20.36040 0.000037586919
20.36620 0.000037594975
20.37200 0.000037603031
20.37780 0.000037611087
20.38360 0.000037619144
20.38940 0.000037627200
20.39520 0.000037635256
20.40100 0.000037643312
20.40680 0.000037651368
20.41260 0.000037659425
20.41840 0.000037667481
20.42420 0.000037675537
20.43000 0.000037683593
20.43580 0.000037691649
20.44160 0.000037699706
20.44740 0.000037707762
20.45320 0.000037715818
20.45900 0.000037723874
20.46480 0.000037731930
20.47060 0.000037739987
20.47640 0.000037748043
20.48220 0.000037756099
20.48800 0.000037764155
20.49380 0.000037772211
20.49960 0.000037780268
20.50540 0.000037756821
20.51120 0.000037731041
20.51700 0.000037705262
20.52280 0.000037679482
20.52860 0.000037653702
20.53440 0.000037627922
20.54020 0.000037602142
20.54600 0.000037576362
20.55180 0.000037550582
20.55760 0.000037524803
20.56340 0.000037499023
20.56920 0.000037473243
20.57500 0.000037447463
20.58080 0.000037421683
20.58660 0.000037395903
20.59240 0.000037370123
20.59820 0.000037344344
20.60400 0.000037318564
20.60980 0.000037292784
20.61560 0.000037267004
20.62140 0.000037241224
20.62720 0.000037215444
20.63300 0.000037189664
20.63880 0.000037163885
20.64460 0.000037138105
20.65040 0.000037112325
20.65620 0.000037086545
20.66200 0.000037060765
20.66780 0.000037034985
20.67360 0.000037009205
20.67940 0.000036983426
20.68520 0.000036957646
20.69100 0.000036931866
20.69680 0.000036906086
20.70260 0.000036880306
20.70840 0.000036854526
20.71420 0.000036828746
20.72000 0.000036802967
20.72580 0.000036777187
20.73160 0.000036751407
20.73740 0.000036725627
20.74320 0.000036699847
20.74900 0.000036674067
20.75480 0.000036648287
20.76060 0.000036622508
20.76640 0.000036596728
20.77220 0.000036570948
20.77800 0.000036545168
20.78380 0.000036519388
20.78960 0.000036493608
20.79540 0.000036467828
20.80120 0.000036442049
20.80700 0.000036416269
20.81280 0.000036390489
20.81860 0.000036364709
20.82440 0.000036338929
20.83020 0.000036313149
20.83600 0.000036287369
20.84180 0.000036261590
20.84760 0.000036235810
20.85340 0.000036210030
20.85920 0.000036184250
20.86500 0.000036158470
20.87080 0.000036132690
20.87660 0.000036106910
20.88240 0.000036081131
20.88820 0.000036055351
20.89400 0.000036029571
20.89980 0.000036003791
20.90560 0.000035978011
20.91140 0.000035952231
20.91720 0.000035926452
20.92300 0.000035900672
20.92880 0.000035874892
20.93460 0.000035849112
20.94040 0.000035823332
20.94620 0.000035797552
20.95200 0.000035771772
20.95780 0.000035745993
20.96360 0.000035720213
20.96940 0.000035694433
20.97520 0.000035668653
20.98100 0.000035642873
20.98680 0.000035617093
20.99260 0.000035591313
20.99840 0.000035565534
21.00420 0.000035575340
21.01000 0.000035598703
21.01580 0.000035622066
21.02160 0.000035645429
21.02740 0.000035668792
21.03320 0.000035692155
21.03900 0.000035715518
21.04480 0.000035738881
21.05060 0.000035762244
21.05640 0.000035785607
21.06220 0.000035808970
21.06800 0.000035832333
21.07380 0.000035855696
21.07960 0.000035879059
21.08540 0.000035902422
21.09120 0.000035925785
21.09700 0.000035949148
21.10280 0.000035972511
21.10860 0.000035995874
21.11440 0.000036019237
21.12020 0.000036042600
21.12600 0.000036065963
21.13180 0.000036089326
21.13760 0.000036112689
21.14340 0.000036136052
21.14920 0.000036159415
21.15500 0.000036182778
21.16080 0.000036206141
21.16660 0.000036229504
21.17240 0.000036252867
21.17820 0.000036276230
21.18400 0.000036299593
21.18980 0.000036322956
21.19560 0.000036346319
21.20140 0.000036369682
21.20720 0.000036393045
21.21300 0.000036416408
21.21880 0.000036439771
21.22460 0.000036463134
21.23040 0.000036486497
21.23620 0.000036509860
21.24200 0.000036533223
21.24780 0.000036556586
21.25360 0.000036579949
21.25940 0.000036603312
21.26520 0.000036626675
21.27100 0.000036650038
21.27680 0.000036673401
21.28260 0.000036696764
21.28840 0.000036720127
21.29420 0.000036743490
21.30000 0.000036766853
21.30580 0.000036790216
21.31160 0.000036813579
21.31740 0.000036836942
21.32320 0.000036860305
21.32900 0.000036883668
21.33480 0.000036907031
21.34060 0.000036930394
21.34640 0.000036953757
21.35220 0.000036977120
21.35800 0.000037000483
21.36380 0.000037023846
21.36960 0.000037047209
21.37540 0.000037070572
21.38120 0.000037093935
21.38700 0.000037117297
21.39280 0.000037140660
21.39860 0.000037164023
21.40440 0.000050088360
21.41020 0.000067136341
21.41600 0.000084205690
21.42180 0.000101816148
21.42760 0.000120604333
21.43340 0.000139415985
21.43920 0.000158251105
21.44500 0.000178348811
21.45080 0.000198669918
21.45660 0.000219016291
21.46240 0.000238891278
21.46820 0.000258086883
21.47400 0.000277306255
21.47980 0.000296549395
21.48560 0.000312355218
21.49140 0.000328056810
21.49720 0.000343777705
21.50300 0.000357679965
21.50880 0.000369871080
21.51460 0.000382061671
21.52040 0.000393883858
21.52620 0.000400739237
21.53200 0.000407594323
21.53780 0.000414449114
21.54360 0.000418323617
21.54940 0.000420376885
21.55520 0.000422430065
21.56100 0.000423813954
21.56680 0.000421985679
21.57260 0.000420157482
21.57840 0.000418329363
21.58420 0.000413364359
21.59000 0.000407204559
21.59580 0.000401045023
21.60160 0.000394475824
21.60740 0.000386830872
21.61320 0.000379186246
21.61900 0.000371541949
21.62480 0.000362935906
21.63060 0.000354129805
21.63640 0.000345324082
21.64220 0.000336588422
21.64800 0.000327967168
21.65380 0.000319346282
21.65960 0.000310725767
21.66540 0.000303886931
21.67120 0.000297180335
21.67700 0.000290474027
21.68280 0.000284591871
21.68860 0.000279592662
21.69440 0.000274593667
21.70020 0.000269715270
21.70600 0.000268207739
21.71180 0.000266700273
21.71760 0.000265192872
21.72340 0.000265585661
21.72920 0.000267319670
21.73500 0.000269053604
21.74080 0.000271237631
21.74660 0.000276235054
21.75240 0.000281232263
21.75820 0.000286229257
21.76400 0.000293535313
21.76980 0.000301880208
21.77560 0.000310224745
21.78140 0.000319311882
21.78720 0.000330733590
21.79300 0.000342154808
21.79880 0.000353575535
21.80460 0.000367386042
21.81040 0.000381819490
21.81620 0.000396252318
21.82200 0.000411664752
21.82780 0.000428938910
21.83360 0.000446212326
21.83940 0.000463485000
21.84520 0.000482804795
21.85100 0.000502360047
21.85680 0.000521914459
21.86260 0.000542533359
21.86840 0.000564462517
21.87420 0.000586390733
21.88000 0.000608318007
21.88580 0.000632465044
21.89160 0.000656611043
21.89740 0.000680756005
21.90320 0.000706351366
21.90900 0.000733124895
21.91480 0.000759897273
21.92060 0.000786791397
21.92640 0.000814749441
21.93220 0.000842706284
21.93800 0.000870661925
21.94380 0.000898926391
21.94960 0.000927352811
21.95540 0.000955778010
21.96120 0.000984253748
21.96700 0.001012926677
21.97280 0.001041598373
21.97860 0.001070268837
21.98440 0.001097907501
21.99020 0.001125217075
21.99600 0.001152525475
22.00180 0.001179462241
22.00760 0.001205565679
22.01340 0.001231654349
22.01920 0.001257728251
22.02500 0.001280616574
22.03080 0.001302984714
22.03660 0.001325340142
22.04240 0.001345819020
22.04820 0.001363646532
22.05400 0.001381463853
22.05980 0.001399270983
22.06560 0.001413604166
22.07140 0.001427805429
22.07720 0.001441998511
22.08300 0.001454364126
22.08880 0.001465025057
22.09460 0.001475679780
22.10040 0.001486100930
22.10620 0.001493447446
22.11200 0.001500789605
22.11780 0.001508127405
22.12360 0.001514178494
22.12940 0.001519442506
22.13520 0.001524703321
22.14100 0.001529448773
22.14680 0.001531733610
22.15260 0.001534016921
22.15840 0.001536298704
22.16420 0.001539561101
22.17000 0.001543195461
22.17580 0.001546827531
22.18160 0.001551207950
22.18740 0.001557555530
22.19320 0.001563899286
22.19900 0.001570239217
22.20480 0.001579186533
22.21060 0.001588672401
22.21640 0.001598152664
22.22220 0.001609783829
22.22800 0.001624936003
22.23380 0.001640079363
22.23960 0.001655213910
22.24540 0.001674889451
22.25120 0.001694890535
22.25700 0.001714880044
22.26280 0.001739374785
22.26860 0.001768693466
22.27440 0.001797995278
22.28020 0.001827620448
22.28600 0.001866752160
22.29180 0.001905861419
22.29760 0.001944948224
22.30340 0.001989963873
22.30920 0.002039153420
22.31500 0.002088314760
22.32080 0.002139010947
22.32660 0.002199444371
22.33240 0.002259843159
22.33820 0.002320207309
22.34400 0.002388059985
22.34980 0.002459258213
22.35560 0.002530415610
22.36140 0.002604441885
22.36720 0.002687567881
22.37300 0.002770646194
22.37880 0.002853676822
22.38460 0.002947091531
22.39040 0.003043173175
22.39620 0.003139199651
22.40200 0.003238341882
22.40780 0.003343450178
22.41360 0.003448498069
22.41940 0.003553485553
22.42520 0.003664835788
22.43100 0.003776862877
22.43680 0.003888825474
22.44260 0.004003949590
22.44840 0.004122976712
22.45420 0.004241935237
22.46000 0.004360825164
22.46580 0.004482368274
22.47160 0.004603841231
22.47740 0.004725244036
22.48320 0.004848446308
22.48900 0.004973095991
22.49480 0.005097673584
22.50060 0.005222333900
22.50640 0.005348263375
22.51220 0.005474119903
22.51800 0.005599903484
22.52380 0.005724662534
22.52960 0.005848848492
22.53540 0.005972962334
22.54120 0.006097262664
22.54700 0.006222481757
22.55280 0.006347628017
22.55860 0.006472701446
22.56440 0.006602092513
22.57020 0.006732804795
22.57600 0.006863440923
22.58180 0.006994978551
22.58760 0.007128611406
22.59340 0.007262166296
22.59920 0.007395643222
22.60500 0.007540438692
22.61080 0.007686972559
22.61660 0.007833420856
22.62240 0.007986523913
22.62820 0.008149083570
22.63400 0.008311548280
22.63980 0.008473918040
22.64560 0.008653102761
22.65140 0.008832786536
22.65720 0.009012365268
22.66300 0.009207392378
22.66880 0.009416817811
22.67460 0.009626120852
22.68040 0.009837170359
22.68620 0.010073318697
22.69200 0.010309328995
22.69780 0.010545201252
22.70360 0.010801811929
22.70940 0.011071026647
22.71520 0.011340083880
22.72100 0.011615488968
22.72680 0.011921949407
22.73260 0.012228230529
22.73840 0.012534332336
22.74420 0.012866292721
22.75000 0.013207975030
22.75580 0.013549457196
22.76160 0.013901554434
22.76740 0.014281826977
22.77320 0.014661876644
22.77900 0.015041703437
22.78480 0.015453178429
22.79060 0.015871049927
22.79640 0.016288676196
22.80220 0.016720977305
22.80800 0.017177432083
22.81380 0.017633618781
22.81960 0.018089537399
22.82540 0.018582282712
22.83120 0.019077485331
22.83700 0.019572396695
22.84280 0.020086083232
22.84860 0.020619889782
22.85440 0.021153382087
22.86020 0.021687998496
22.86600 0.022262561884
22.87180 0.022836786723
22.87760 0.023410673012
22.88340 0.024007209687
22.88920 0.024619617152
22.89500 0.025231663191
22.90080 0.025849514249
22.90660 0.026505529304
22.91240 0.027161156832
22.91820 0.027816396832
22.92400 0.028504166928
22.92980 0.029206338857
22.93560 0.029908095359
22.94140 0.030620621691
22.94720 0.031367869438
22.95300 0.032114674647
22.95880 0.032861037320
22.96460 0.033656011870
22.97040 0.034463308206
22.97620 0.035270125778
22.98200 0.036096484007
22.98780 0.036960377485
22.99360 0.037823758164
22.99940 0.038686626044
23.00520 0.039600694429
23.01100 0.040519694844
23.01680 0.041437631893
23.02260 0.042393262439
23.02840 0.043395459571
23.03420 0.044396495562
23.04000 0.045396370413
23.04580 0.046474853349
23.05160 0.047552084729
23.05740 0.048628064554
23.06320 0.049754164764
23.06900 0.050920671098
23.07480 0.052085820159
23.08060 0.053260109676
23.08640 0.054523958559
23.09220 0.055786334755
23.09800 0.057047238265
23.10380 0.058368840789
23.10960 0.059721603053
23.11540 0.061072784460
23.12120 0.062441730618
23.12700 0.063883189652
23.13280 0.065322961060
23.13860 0.066761044843
23.14440 0.068271852156
23.15020 0.069804549409
23.15600 0.071335446777
23.16180 0.072889620446
23.16760 0.074497658395
23.17340 0.076103803825
23.17920 0.077708056736
23.18500 0.079370098110
23.19080 0.081039721857
23.19660 0.082707373533
23.20240 0.084403708311
23.20820 0.086141438896
23.21400 0.087877112136
23.21980 0.089610728031
23.22560 0.091385789332
23.23140 0.093160295871
23.23720 0.094932693082
23.24300 0.096725670595
23.24880 0.098537677310
23.25460 0.100347523999
23.26040 0.102157834061
23.26620 0.104001376437
23.27200 0.105842714749
23.27780 0.107681848995
23.28360 0.109529088795
23.28940 0.111380409234
23.29520 0.113229506334
23.30100 0.115080417064
23.30680 0.116948465952
23.31260 0.118814264284
23.31840 0.120677812058
23.32420 0.122545062493
23.33000 0.124412322007
23.33580 0.126277321384
23.34160 0.128139646492
23.34740 0.129998625481
23.35320 0.131855346087
23.35900 0.133709808309
23.36480 0.135564573780
23.37060 0.137417611232
23.37640 0.139268386679
23.38220 0.141108506934
23.38800 0.142932648764
23.39380 0.144754554523
23.39960 0.146574224209
23.40540 0.148374993092
23.41120 0.150172311780
23.41700 0.151967415423
23.42280 0.153746071540
23.42860 0.155507289248
23.43440 0.157266326604
23.44020 0.159021181322
23.44600 0.160717827048
23.45180 0.162412360877
23.45760 0.164104782808
23.46340 0.165767740498
23.46920 0.167409322483
23.47500 0.169048847706
23.48080 0.170676638679
23.48660 0.172241935832
23.49240 0.173805259280
23.49820 0.175366609023
23.50400 0.176932858164
23.50980 0.178501830881
23.51560 0.180070728957
23.52140 0.181620012903
23.52720 0.183107814768
23.53300 0.184595545834
23.53880 0.186083206100
23.54460 0.187492230776
23.55040 0.188880693703
23.55620 0.190269090532
23.56200 0.191620548892
23.56780 0.192901887061
23.57360 0.194183164206
23.57940 0.195464380327
23.58520 0.196655502049
23.59100 0.197836178799
23.59680 0.199016799292
23.60260 0.200152173520
23.60840 0.201231876485
23.61420 0.202311527977
23.62000 0.203391127995
23.62580 0.204366137050
23.63160 0.205341099593
23.63740 0.206316015625
23.64320 0.207239294552
23.64900 0.208120613055
23.65480 0.209001889485
23.66060 0.209874601820
23.66640 0.210673416703
23.67220 0.211472193425
23.67800 0.212270931986
23.68380 0.213011667088
23.68960 0.213721859454
23.69540 0.214432017860
23.70120 0.215127544275
23.70700 0.215767079637
23.71280 0.216406584388
23.71860 0.217046058529
23.72440 0.217639370965
23.73020 0.218217977255
23.73600 0.218796555823
23.74180 0.219354831603
23.74760 0.219868025993
23.75340 0.220381195764
23.75920 0.220894340914
23.76500 0.221364886496
23.77080 0.221828597649
23.77660 0.222292286528
23.78240 0.222736576975
23.78820 0.223153397162
23.79400 0.223570197300
23.79980 0.223986977387
23.80560 0.224358435711
23.81140 0.224728258257
23.81720 0.225098062982
23.82300 0.225449026391
23.82880 0.225782404696
23.83460 0.226115766908
23.84040 0.226446460969
23.84620 0.226741337127
23.85200 0.227036199020
23.85780 0.227331046647
23.86360 0.227604394274
23.86940 0.227864598797
23.87520 0.228124790699
23.88100 0.228380171977
23.88680 0.228612510994
23.89260 0.228844838712
23.89840 0.229077155133
23.90420 0.229286604943
23.91000 0.229487337963
23.91580 0.229688061184
23.92160 0.229882346691
23.92740 0.230059749827
23.93320 0.230237144271
23.93900 0.230414530024
23.94480 0.230577750744
23.95060 0.230738014277
23.95640 0.230898269932
23.96220 0.231050724819
23.96800 0.231190420498
23.97380 0.231330109276
23.97960 0.231469791152
23.98540 0.231598942149
23.99120 0.231727307210
23.99700 0.231855665906
24.00280 0.231884908578
24.00860 0.231807794952
24.01440 0.231730457784
24.02020 0.231652572711
24.02600 0.231565390519
24.03180 0.231478001382
24.03760 0.231390405300
24.04340 0.231300026627
24.04920 0.231207629077
24.05500 0.231115032362
24.06080 0.231021873828
24.06660 0.230926252191
24.07240 0.230830436058
24.07820 0.230734425428
24.08400 0.230635275828
24.08980 0.230534613145
24.09560 0.230433763572
24.10140 0.230331675939
24.10720 0.230226102565
24.11300 0.230120350081
24.11880 0.230014418487
24.12460 0.229905172189
24.13040 0.229794935155
24.13620 0.229684526100
24.14200 0.229572386415
24.14780 0.229457118821
24.15360 0.229341687331
24.15940 0.229226091945
24.16520 0.229105092104
24.17100 0.228983333689
24.17680 0.228861421924
24.18260 0.228736486586
24.18840 0.228607873705
24.19420 0.228479119057
24.20000 0.228350222643
24.20580 0.228216709194
24.21160 0.228083062104
24.21740 0.227949281374
24.22320 0.227813638091
24.22900 0.227676460853
24.23480 0.227539155680
24.24060 0.227401291523
24.24640 0.227259567884
24.25220 0.227117723916
24.25800 0.226975759619
24.26380 0.226832562267
24.26960 0.226688661515
24.27540 0.226544643547
24.28120 0.226400527830
24.28700 0.226256369418
24.29280 0.226112093617
24.29860 0.225967700426
24.30440 0.225822407527
24.31020 0.225676749991
24.31600 0.225530976966
24.32180 0.225385581692
24.32760 0.225241165090
24.33340 0.225096630060
24.33920 0.224951976604
24.34500 0.224810577169
24.35080 0.224669592138
24.35660 0.224528481420
24.36240 0.224388436497
24.36820 0.224249950033
24.37400 0.224111332521
24.37980 0.223972583961
24.38560 0.223836384786
24.39140 0.223700145196
24.39720 0.223563769371
24.40300 0.223428832426
24.40880 0.223295225024
24.41460 0.223161475683
24.42040 0.223027774789
24.42620 0.222896499399
24.43200 0.222765076883
24.43780 0.222633507241
24.44360 0.222503326807
24.44940 0.222373934336
24.45520 0.222244390071
24.46100 0.222115135325
24.46680 0.221987844253
24.47260 0.221860396546
24.47840 0.221732792205
24.48420 0.221606877735
24.49000 0.221481505887
24.49580 0.221355972565
24.50160 0.221231797781
24.50740 0.221111454559
24.51320 0.220990954561
24.51900 0.220870297789
24.52480 0.220748735491
24.53060 0.220626861965
24.53640 0.220504833346
24.54220 0.220382546968
24.54800 0.220259937846
24.55380 0.220137174136
24.55960 0.220014255837
24.56540 0.219888923419
24.57120 0.219763273425
24.57700 0.219637473385
24.58280 0.219510225165
24.58860 0.219381439782
24.59440 0.219252509400
24.60020 0.219123344637
24.60600 0.218991534737
24.61180 0.218859584715
24.61760 0.218727494572
24.62340 0.218592549992
24.62920 0.218455556240
24.63500 0.218318431113
24.64080 0.218180427535
24.64660 0.218037629188
24.65240 0.217894709728
24.65820 0.217751669154
24.66400 0.217605274264
24.66980 0.217457310852
24.67560 0.217309235241
24.68140 0.217159833877
24.68720 0.217006512239
24.69300 0.216853087990
24.69880 0.216699561130
24.70460 0.216541750415
24.71040 0.216382755377
24.71620 0.216223667822
24.72200 0.216062765673
24.72780 0.215898505507
24.73360 0.215734162411
24.73940 0.215569736386
24.74520 0.215401001972
24.75100 0.215231705689
24.75680 0.215062335560
24.76260 0.214890667929
24.76840 0.214716196587
24.77420 0.214541660987
24.78000 0.214367061130
24.78580 0.214187715794
24.79160 0.214008315284
24.79740 0.213828859600
24.80320 0.213647250410
24.80900 0.213463886895
24.81480 0.213280475606
24.82060 0.213096633172
24.82640 0.212909424390
24.83220 0.212722175068
24.83800 0.212534885207
24.84380 0.212345136255
24.84960 0.212154079828
24.85540 0.211962990095
24.86120 0.211771087838
24.86700 0.211576169739
24.87280 0.211381225735
24.87860 0.211186255827
24.88440 0.210988478791
24.89020 0.210789797276
24.89600 0.210591097090
24.90180 0.210391270208
24.90760 0.210188967006
24.91340 0.209986652199
24.91920 0.209784325784
24.92500 0.209579141075
24.93080 0.209373495397
24.93660 0.209167844673
24.94240 0.208960826564
24.94820 0.208751878067
24.95400 0.208542931083
24.95980 0.208333985614
24.96560 0.208121875538
24.97140 0.207909660347
24.97720 0.207697453230
24.98300 0.207484213544
24.98880 0.207270013727
24.99460 0.207055826022
25.00040 0.206843898878
25.00620 0.206662338727
25.01200 0.206480792174
25.01780 0.206299259218
25.02360 0.206116343900
25.02940 0.205932592161
25.03520 0.205748857804
25.04100 0.205565212456
25.04680 0.205381927891
25.05260 0.205198660007
25.05840 0.205015408804
25.06420 0.204833313597
25.07000 0.204651666799
25.07580 0.204470034019
25.08160 0.204288551969
25.08740 0.204107442271
25.09320 0.203926345749
25.09900 0.203745262404
25.10480 0.203565963463
25.11060 0.203387043375
25.11640 0.203208132819
25.12220 0.203030446404
25.12800 0.202854753292
25.13380 0.202679064246
25.13960 0.202503379265
25.14540 0.202330288567
25.15120 0.202157389201
25.15700 0.201984489133
25.16280 0.201812533983
25.16860 0.201641588799
25.17440 0.201470639550
25.18020 0.201299756413
25.18600 0.201130832359
25.19180 0.200961900735
25.19760 0.200792961542
25.20340 0.200625584132
25.20920 0.200459303262
25.21500 0.200293010197
25.22080 0.200126738418
25.22660 0.199960663467
25.23240 0.199794575899
25.23820 0.199628475716
25.24400 0.199461083886
25.24980 0.199293106600
25.25560 0.199125119922
25.26140 0.198956910312
25.26720 0.198788021140
25.27300 0.198619124118
25.27880 0.198450219246
25.28460 0.198280225963
25.29040 0.198109945080
25.29620 0.197939658731
25.30200 0.197768540015
25.30780 0.197595847550
25.31360 0.197423153823
25.31940 0.197250458834
25.32520 0.197075263118
25.33100 0.196899782393
25.33680 0.196724305313
25.34260 0.196548190854
25.34840 0.196371292915
25.35420 0.196194401144
25.36000 0.196017515541
25.36580 0.195840477780
25.37160 0.195663446468
25.37740 0.195486421604
25.38320 0.195308706228
25.38900 0.195130432762
25.39480 0.194952167986
25.40060 0.194773903756
25.40640 0.194595577698
25.41220 0.194417260471
25.41800 0.194238952075
25.42380 0.194062194691
25.42960 0.193886254331
25.43540 0.193710318597
25.44120 0.193534905568
25.44700 0.193361480428
25.45280 0.193188055428
25.45860 0.193014630568
25.46440 0.192842743763
25.47020 0.192671343229
25.47600 0.192499939191
25.48180 0.192329303895
25.48760 0.192160378258
25.49340 0.191991444631
25.49920 0.191822503014
25.50500 0.191566416241
25.51080 0.191296367132
25.51660 0.191026296716
25.52240 0.190757289821
25.52820 0.190489793068
25.53400 0.190222267383
25.53980 0.189954712764
25.54560 0.189688461499
25.55140 0.189422224915
25.55720 0.189155955361
25.56300 0.188890047611
25.56880 0.188624473645
25.57460 0.188358864466
25.58040 0.188093319643
25.58620 0.187829081504
25.59200 0.187564803890
25.59780 0.187300486802
25.60360 0.187036083355
25.60940 0.186771611963
25.61520 0.186507101321
25.62100 0.186242305080
25.62680 0.185976289608
25.63260 0.185710239149
25.63840 0.185444153701
25.64420 0.185177600214
25.65000 0.184910848313
25.65580 0.184644063217
25.66160 0.184376916469
25.66740 0.184108876612
25.67320 0.183840807149
25.67900 0.183572708080
25.68480 0.183303049036
25.69060 0.183033046683
25.69640 0.182763020331
25.70220 0.182492327610
25.70800 0.182220563296
25.71380 0.181948780141
25.71960 0.181676978147
25.72540 0.181403590190
25.73120 0.181130072290
25.73700 0.180856540709
25.74280 0.180581799759
25.74860 0.180305769689
25.75440 0.180029733563
25.76020 0.179753628873
25.76600 0.179475770785
25.77180 0.179197912249
25.77760 0.178920053264
25.78340 0.178640926542
25.78920 0.178360910153
25.79500 0.178080900043
25.80080 0.177800371879
25.80660 0.177516579666
25.81240 0.177232805619
25.81820 0.176949049740
25.82400 0.176662362657
25.82980 0.176374377893
25.83560 0.176086424753
25.84140 0.175797732681
25.84720 0.175506656752
25.85300 0.175215622540
25.85880 0.174924630045
25.86460 0.174629094890
25.87040 0.174332422017
25.87620 0.174035809253
25.88200 0.173736498777
25.88780 0.173432025747
25.89360 0.173127638393
25.89940 0.172823336716
25.90520 0.172513496124
25.91100 0.172203111360
25.91680 0.171892832458
25.92260 0.171579176563
25.92840 0.171261358131
25.93420 0.170943670681
25.94000 0.170626114213
25.94580 0.170298764034
25.95160 0.169971577135
25.95740 0.169644553516
25.96320 0.169312357731
25.96900 0.168976014714
25.97480 0.168639866600
25.98060 0.168302953202
25.98640 0.167957929911
25.99220 0.167613132027
25.99800 0.167268559548
26.00380 0.166849851520
26.00960 0.166392339024
26.01540 0.165935181796
26.02120 0.165476179496
26.02700 0.165009127238
26.03280 0.164542478974
26.03860 0.164076234702
26.04440 0.163602704015
26.05020 0.163127171591
26.05600 0.162652090035
26.06180 0.162174828397
26.06760 0.161692196931
26.07340 0.161210055807
26.07920 0.160728405026
26.08500 0.160240683212
26.09080 0.159752435226
26.09660 0.159264713356
26.10240 0.158773662450
26.10820 0.158277707368
26.11400 0.157782322502
26.11980 0.157287507852
26.12560 0.156787281747
26.13140 0.156287441323
26.13720 0.155788200720
26.14300 0.155288300596
26.14880 0.154787833798
26.15460 0.154287978540
26.16040 0.153788418970
26.16620 0.153285218797
26.17200 0.152782652368
26.17780 0.152280719684
26.18360 0.151777504906
26.18940 0.151273765328
26.19520 0.150770674605
26.20100 0.150268566949
26.20680 0.149768706759
26.21260 0.149269485864
26.21840 0.148770904265
26.22420 0.148275517477
26.23000 0.147781728360
26.23580 0.147288560961
26.24160 0.146796337364
26.24740 0.146305577220
26.25320 0.145815432934
26.25900 0.145325904506
26.26480 0.144841120236
26.27060 0.144357788779
26.27640 0.143875047891
26.28220 0.143396057688
26.28800 0.142922799802
26.29380 0.142450089927
26.29960 0.141977928065
26.30540 0.141512266981
26.31120 0.141047562994
26.31700 0.140583374021
26.32280 0.140123077646
26.32860 0.139666888147
26.33440 0.139211177271
26.34020 0.138756239165
26.34600 0.138309992633
26.35180 0.137864180009
26.35760 0.137418801291
26.36340 0.136979111652
26.36920 0.136543527786
26.37500 0.136108330334
26.38080 0.135674634466
26.38660 0.135248270247
26.39240 0.134822249268
26.39820 0.134396571529
26.40400 0.133976319897
26.40980 0.133558665184
26.41560 0.133141313929
26.42140 0.132726044409
26.42720 0.132316642337
26.43300 0.131907503632
26.43880 0.131498628293
26.44460 0.131096329118
26.45040 0.130695900865
26.45620 0.130295692186
26.46200 0.129897792539
26.46780 0.129504059830
26.47360 0.129110513081
26.47940 0.128717152293
26.48520 0.128327624721
26.49100 0.127938682307
26.49680 0.127549903032
26.50260 0.127210296779
26.50840 0.126931122656
26.51420 0.126652041429
26.52000 0.126373053098
26.52580 0.126098539143
26.53160 0.125824100295
26.53740 0.125549736554
26.54320 0.125275922518
26.54900 0.125002566473
26.55480 0.124729282021
26.56060 0.124456030469
26.56640 0.124182516018
26.57220 0.123909074698
26.57800 0.123635706508
26.58380 0.123363730825
26.58960 0.123092515773
26.59540 0.122821365507
26.60120 0.122549822387
26.60700 0.122276595334
26.61280 0.122003442291
26.61860 0.121730363257
26.62440 0.121452366181
26.63020 0.121172879066
26.63600 0.120893493632
26.64180 0.120612889209
26.64760 0.120329463444
26.65340 0.120046157368
26.65920 0.119762970981
26.66500 0.119475512693
26.67080 0.119187491683
26.67660 0.118899612102
26.68240 0.118608235079
26.68820 0.118311871117
26.69400 0.118015686360
26.69980 0.117719680805
26.70560 0.117413283311
26.71140 0.117106734098
26.71720 0.116800411524
26.72300 0.116489548857
26.72880 0.116174494366
26.73460 0.115859706704
26.74040 0.115544609669
26.74620 0.115222020338
26.75200 0.114899734511
26.75780 0.114577752187
26.76360 0.114251210099
26.76940 0.113922027636
26.77520 0.113593183375
26.78100 0.113262834281
26.78680 0.112924004752
26.79260 0.112585561081
26.79840 0.112247503270
26.80420 0.111904492922
26.81000 0.111559863345
26.81580 0.111215652789
26.82160 0.110871473315
26.82740 0.110526698587
26.83320 0.110182349247
26.83900 0.109838425296
26.84480 0.109495244878
26.85060 0.109152554524
26.85640 0.108810287801
26.86220 0.108467050852
26.86800 0.108121968339
26.87380 0.107777326367
26.87960 0.107433124938
26.88540 0.107092313616
26.89120 0.106752147117
26.89700 0.106412406445
26.90280 0.106078078540
26.90860 0.105749483793
26.91440 0.105421266559
26.92020 0.105093716238
26.92600 0.104774626179
26.93180 0.104455874103
26.93760 0.104137460011
26.94340 0.103823878306
26.94920 0.103513778193
26.95500 0.103203979607
26.96080 0.102895987919
26.96660 0.102597676588
26.97240 0.102299614518
26.97820 0.102001801706
26.98400 0.101713634913
26.98980 0.101429890259
26.99560 0.101146328982
27.00140 0.100879853881
27.00720 0.100666629583
27.01300 0.100453498979
27.01880 0.100240462071
27.02460 0.100035789830
27.03040 0.099833333791
27.03620 0.099630932252
27.04200 0.099431455065
27.04780 0.099237463944
27.05360 0.099043495867
27.05940 0.098849550836
27.06520 0.098664222058
27.07100 0.098479873235
27.07680 0.098295510955
27.08260 0.098115308842
27.08840 0.097940204218
27.09420 0.097765050475
27.10000 0.097589847614
27.10580 0.097419912459
27.11160 0.097249907663
27.11740 0.097079833226
27.12320 0.096910956126
27.12900 0.096743031887
27.13480 0.096575029092
27.14060 0.096407415634
27.14640 0.096243768950
27.15220 0.096080026049
27.15800 0.095916186929
27.16380 0.095754435724
27.16960 0.095593726987
27.17540 0.095432908911
27.18120 0.095272183676
27.18700 0.095112121792
27.19280 0.094951946700
27.19860 0.094791658401
27.20440 0.094631416775
27.21020 0.094471112074
27.21600 0.094310693324
27.22180 0.094150602626
27.22760 0.093991376577
27.23340 0.093832030759
27.23920 0.093672565174
27.24500 0.093513158967
27.25080 0.093353660872
27.25660 0.093194042168
27.26240 0.093033858420
27.26820 0.092872927539
27.27400 0.092711880422
27.27980 0.092550717070
27.28560 0.092389081439
27.29140 0.092227318344
27.29720 0.092065440528
27.30300 0.091903174177
27.30880 0.091740539205
27.31460 0.091577791698
27.32040 0.091414814436
27.32620 0.091250145956
27.33200 0.091085372005
27.33780 0.090920492584
27.34360 0.090753938389
27.34940 0.090586328291
27.35520 0.090418623320
27.36100 0.090250500313
27.36680 0.090080735880
27.37260 0.089910884481
27.37840 0.089740946116
27.38420 0.089569460406
27.39000 0.089397338790
27.39580 0.089225138786
27.40160 0.089052166704
27.40740 0.088877302165
27.41320 0.088702370003
27.41900 0.088527370220
27.42480 0.088349852701
27.43060 0.088171768802
27.43640 0.087993630066
27.44220 0.087814379519
27.44800 0.087633352892
27.45380 0.087452283539
27.45960 0.087271171460
27.46540 0.087088302096
27.47120 0.086905270797
27.47700 0.086722204846
27.48280 0.086538736250
27.48860 0.086354841217
27.49440 0.086170914897
27.50020 0.085981597779
27.50600 0.085642176518
27.51180 0.085302711217
27.51760 0.084963201877
27.52340 0.084622884200
27.52920 0.084281991410
27.53500 0.083941065211
27.54080 0.083600146205
27.54660 0.083259446173
27.55240 0.082918710302
27.55820 0.082577938592
27.56400 0.082238204219
27.56980 0.081898905902
27.57560 0.081559558687
27.58140 0.081220291950
27.58720 0.080881380103
27.59300 0.080542414801
27.59880 0.080203396045
27.60460 0.079865103861
27.61040 0.079526954085
27.61620 0.079188742349
27.62200 0.078851102277
27.62780 0.078514593303
27.63360 0.078178006274
27.63940 0.077841341189
27.64520 0.077506857915
27.65100 0.077172536027
27.65680 0.076838113607
27.66260 0.076504479501
27.66840 0.076171825848
27.67420 0.075839053745
27.68000 0.075506163191
27.68580 0.075175035155
27.69160 0.074843771356
27.69740 0.074512371794
27.70320 0.074181841963
27.70900 0.073851980136
27.71480 0.073521965539
27.72060 0.073192010617
27.72640 0.072863733403
27.73220 0.072535283981
27.73800 0.072206662350
27.74380 0.071879167908
27.74960 0.071552169316
27.75540 0.071224979382
27.76120 0.070897880541
27.76700 0.070571664968
27.77280 0.070245244688
27.77860 0.069918619701
27.78440 0.069592320746
27.79020 0.069265979814
27.79600 0.068939427189
27.80180 0.068612988324
27.80760 0.068287054029
27.81340 0.067960897412
27.81920 0.067634518472
27.82500 0.067308802915
27.83080 0.066982996852
27.83660 0.066656957836
27.84240 0.066330805451
27.84820 0.066004587375
27.85400 0.065678133310
27.85980 0.065351443256
27.86560 0.065024216733
27.87140 0.064696746773
27.87720 0.064369044164
27.88300 0.064041108907
27.88880 0.063712941001
27.89460 0.063384540446
27.90040 0.063055909130
27.90620 0.062727070496
27.91200 0.062397998910
27.91780 0.062068694371
27.92360 0.061738957466
27.92940 0.061408868697
27.93520 0.061078550621
27.94100 0.060747907949
27.94680 0.060416582326
27.95260 0.060085033774
27.95840 0.059753262292
27.96420 0.059420895526
27.97000 0.059088169217
27.97580 0.058755226054
27.98160 0.058421982433
27.98740 0.058088304829
27.99320 0.057754414014
27.99900 0.057420309988
28.00480 0.057166437135
28.01060 0.056929165877
28.01640 0.056691742208
28.02220 0.056454101468
28.02800 0.056216203569
28.03380 0.055978154797
28.03960 0.055739955152
28.04540 0.055501292935
28.05120 0.055262459724
28.05700 0.055023478715
28.06280 0.054784304365
28.06860 0.054544934073
28.07440 0.054305416861
28.08020 0.054065759143
28.08600 0.053826133217
28.09180 0.053586358613
28.09760 0.053346435332
28.10340 0.053106563991
28.10920 0.052866682971
28.11500 0.052626649980
28.12080 0.052386489829
28.12660 0.052146331781
28.13240 0.051906020005
28.13820 0.051665554501
28.14400 0.051425041700
28.14980 0.051184421766
28.15560 0.050943646566
28.16140 0.050702758037
28.16720 0.050461844953
28.17300 0.050220774846
28.17880 0.049979547716
28.18460 0.049738366071
28.19040 0.049497077869
28.19620 0.049255630009
28.20200 0.049014101951
28.20780 0.048772563584
28.21360 0.048530863144
28.21940 0.048289000630
28.22520 0.048047049593
28.23100 0.047804944135
28.23680 0.047562675726
28.24260 0.047320226272
28.24840 0.047077591916
28.25420 0.046834795047
28.26000 0.046591835665
28.26580 0.046348812474
28.27160 0.046105625672
28.27740 0.045862275258
28.28320 0.045618836202
28.28900 0.045375293252
28.29480 0.045131585155
28.30060 0.044887686247
28.30640 0.044643401364
28.31220 0.044398954187
28.31800 0.044154344717
28.32380 0.043909218744
28.32960 0.043663749322
28.33540 0.043418123975
28.34120 0.043172240403
28.34700 0.042925812328
28.35280 0.042679234259
28.35860 0.042432506195
28.36440 0.042185370503
28.37020 0.041938006512
28.37600 0.041690496698
28.38180 0.041442661382
28.38760 0.041194285701
28.39340 0.040945771444
28.39920 0.040697118613
28.40500 0.040447619399
28.41080 0.040197878175
28.41660 0.039948008917
28.42240 0.039697706188
28.42820 0.039446849553
28.43400 0.039195874547
28.43980 0.038944781170
28.44560 0.038692954261
28.45140 0.038440995428
28.45720 0.038188926789
28.46300 0.037936350922
28.46880 0.037683302318
28.47460 0.037430154450
28.48040 0.037176845687
28.48620 0.036922612342
28.49200 0.036668292250
28.49780 0.036413885412
28.50360 0.036282639553
28.50940 0.036226681594
28.51520 0.036170706724
28.52100 0.036114568053
28.52680 0.036057709081
28.53260 0.036000836078
28.53840 0.035943949042
28.54420 0.035886577451
28.55000 0.035829014487
28.55580 0.035771439701
28.56160 0.035713732822
28.56740 0.035655699362
28.57320 0.035597655571
28.57900 0.035539601449
28.58480 0.035481042726
28.59060 0.035422372579
28.59640 0.035363694156
28.60220 0.035304782087
28.60800 0.035245494374
28.61380 0.035186200441
28.61960 0.035126900290
28.62540 0.035067360443
28.63120 0.035007797927
28.63700 0.034948230066
28.64280 0.034888678111
28.64860 0.034829143466
28.65440 0.034769603321
28.66020 0.034710055664
28.66600 0.034650446239
28.67180 0.034590831520
28.67760 0.034531211506
28.68340 0.034471501233
28.68920 0.034411726098
28.69500 0.034351946182
28.70080 0.034292177395
28.70660 0.034232503022
28.71240 0.034172823458
28.71820 0.034113138703
28.72400 0.034053695554
28.72980 0.033994357187
28.73560 0.033935012343
28.74140 0.033875774430
28.74720 0.033816885408
28.75300 0.033757988214
28.75880 0.033699082847
28.76460 0.033640415929
28.77040 0.033581804160
28.77620 0.033523183087
28.78200 0.033464610880
28.78780 0.033406139474
28.79360 0.033347658148
28.79940 0.033289166902
28.80520 0.033230703269
28.81100 0.033172233901
28.81680 0.033113754458
28.82260 0.033055327150
28.82840 0.032996965961
28.83420 0.032938594184
28.84000 0.032880211818
28.84580 0.032821997934
28.85160 0.032763772794
28.85740 0.032705536397
28.86320 0.032647250958
28.86900 0.032588923761
28.87480 0.032530585564
28.88060 0.032472199734
28.88640 0.032413486146
28.89220 0.032354762896
28.89800 0.032296029982
28.90380 0.032237083709
28.90960 0.032178021544
28.91540 0.032118950897
28.92120 0.032059849524
28.92700 0.032000654640
28.93280 0.031941451686
28.93860 0.031882240663
28.94440 0.031822687669
28.95020 0.031763021854
28.95600 0.031703349666
28.96180 0.031643420068
28.96760 0.031582928291
28.97340 0.031522433276
28.97920 0.031461935023
28.98500 0.031400673556
28.99080 0.031339290461
28.99660 0.031277907571
29.00240 0.031172473889
29.00820 0.031004639049
29.01400 0.030836810376
29.01980 0.030668987872
29.02560 0.030500332332
29.03140 0.030331662357
29.03720 0.030163008081
29.04300 0.029993751757
29.04880 0.029823944672
29.05460 0.029654166603
29.06040 0.029484324627
29.06620 0.029313265362
29.07200 0.029142250393
29.07780 0.028971279720
29.08360 0.028799828441
29.08940 0.028628108636
29.09520 0.028456442939
29.10100 0.028284618496
29.10680 0.028111834998
29.11260 0.027939120187
29.11840 0.027766474063
29.12420 0.027592662842
29.13000 0.027418468059
29.13580 0.027244362569
29.14160 0.027069784427
29.14740 0.026893836476
29.15320 0.026718002910
29.15900 0.026542283729
29.16480 0.026365466372
29.17060 0.026188527691
29.17640 0.026011721899
29.18220 0.025834412895
29.18800 0.025656210774
29.19380 0.025478163129
29.19960 0.025300269961
29.20540 0.025120605147
29.21120 0.024940978526
29.21700 0.024761533715
29.22280 0.024581111053
29.22860 0.024399651714
29.23440 0.024218406566
29.24020 0.024037301128
29.24600 0.023854339735
29.25180 0.023671622251
29.25760 0.023489148678
29.26340 0.023305734114
29.26920 0.023121749741
29.27500 0.022938037874
29.28080 0.022754306902
29.28660 0.022569043256
29.29240 0.022384082676
29.29820 0.022199425160
29.30400 0.022013570371
29.30980 0.021827370852
29.31560 0.021641506778
29.32140 0.021455418084
29.32720 0.021267926554
29.33300 0.021080805795
29.33880 0.020894055806
29.34460 0.020705984445
29.35040 0.020517872462
29.35620 0.020330164752
29.36200 0.020142266168
29.36780 0.019953659739
29.37360 0.019765485339
29.37940 0.019577742966
29.38520 0.019389237555
29.39100 0.019201047282
29.39680 0.019013311186
29.40260 0.018825413436
29.40840 0.018637228871
29.41420 0.018449521892
29.42000 0.018262292500
29.42580 0.018073856177
29.43160 0.017885927158
29.43740 0.017698505443
29.44320 0.017511014865
29.44900 0.017323578139
29.45480 0.017136667641
29.46060 0.016950243669
29.46640 0.016764005781
29.47220 0.016578301270
29.47800 0.016393130136
29.48380 0.016208497127
29.48960 0.016024399876
29.49540 0.015840835863
29.50120 0.015671648912
29.50700 0.015555928456
29.51280 0.015440517952
29.51860 0.015325417400
29.52440 0.015210428406
29.53020 0.015095688893
29.53600 0.014981262351
29.54180 0.014867257919
29.54760 0.014753806285
29.55340 0.014640663491
29.55920 0.014527829537
29.56500 0.014416090081
29.57080 0.014304774963
29.57660 0.014193757724
29.58240 0.014083250353
29.58820 0.013973336743
29.59400 0.013863714736
29.59980 0.013754384331
29.60560 0.013645791408
29.61140 0.013537500312
29.61720 0.013429495021
29.62300 0.013322157580
29.62880 0.013215455348
29.63460 0.013109029467
29.64040 0.013002950052
29.64620 0.012898086439
29.65200 0.012793485911
29.65780 0.012689148470
29.66360 0.012585758594
29.66940 0.012483038125
29.67520 0.012380565966
29.68100 0.012278499383
29.68680 0.012177428664
29.69260 0.012076593786
29.69840 0.011975994747
29.70420 0.011876208521
29.71000 0.011776868280
29.71580 0.011677752678
29.72160 0.011579057042
29.72740 0.011481092293
29.73320 0.011383342016
29.73900 0.011285806212
29.74480 0.011189062923
29.75060 0.011092645097
29.75640 0.010996431416
29.76220 0.010900758661
29.76800 0.010805831888
29.77380 0.010711095836
29.77960 0.010616550506
29.78540 0.010522755625
29.79120 0.010429183877
29.79700 0.010335793477
29.80280 0.010242730951
29.80860 0.010150003171
29.81440 0.010057451895
29.82020 0.009965078293
29.82600 0.009872913730
29.83180 0.009780925113
29.83760 0.009689112443
29.84340 0.009597649210
29.84920 0.009506480416
29.85500 0.009415482566
29.86080 0.009324691022
29.86660 0.009234288921
29.87240 0.009144053314
29.87820 0.009053984201
29.88400 0.008964066343
29.88980 0.008874308455
29.89560 0.008784717459
29.90140 0.008695224843
29.90720 0.008605687051
29.91300 0.008516321394
29.91880 0.008427127870
29.92460 0.008337827278
29.93040 0.008248632038
29.93620 0.008159615684
29.94200 0.008070721347
29.94780 0.007981900033
29.95360 0.007893260862
29.95940 0.007804803834
29.96520 0.007716345361
29.97100 0.007628051839
29.97680 0.007539944670
29.98260 0.007451909713
29.98840 0.007363924538
29.99420 0.007276131118
